p4
Integration time [ms]:  20.000
Averaging Nr. [scans]: 50
Smoothing Nr. [pixels]: 0
Data measured with spectrometer [name]: 1307077U2
Wave   ;Sample   ;Dark     ;Reference;Scope Corrected for Dark
[nm]   ;[counts] ;[counts] ;[counts] 

 350.80;   17.240;   -3.950;    0.000;21.19000
 351.10;   11.780;    2.790;    0.000; 8.99000
 351.39;   13.420;   -5.780;    0.000;19.20000
 351.69;   -1.400;   -6.710;    0.000; 5.31000
 351.99;    3.260;  -10.760;    0.000;14.02000
 352.28;    2.860;  -11.870;    0.000;14.73000
 352.58;   11.560;    2.640;    0.000; 8.92000
 352.88;   -2.200;   -3.560;    0.000; 1.36000
 353.17;   23.600;   -1.460;    0.000;25.06000
 353.47;  -12.120;   -7.300;    0.000;-4.82000
 353.76;   12.840;    3.730;    0.000; 9.11000
 354.06;   14.740;    1.480;    0.000;13.26000
 354.36;   19.340;    2.120;    0.000;17.22000
 354.65;   20.500;   12.260;    0.000; 8.24000
 354.95;   12.480;    1.380;    0.000;11.10000
 355.24;   -6.100;   -7.520;    0.000; 1.42000
 355.54;   12.860;   -6.140;    0.000;19.00000
 355.84;    2.320;    1.010;    0.000; 1.31000
 356.13;   43.380;    1.060;    0.000;42.32000
 356.43;    1.800;   -3.280;    0.000; 5.08000
 356.72;    2.300;   -7.820;    0.000;10.12000
 357.02;    6.080;    1.340;    0.000; 4.74000
 357.31;   26.440;    4.400;    0.000;22.04000
 357.61;   17.780;    0.390;    0.000;17.39000
 357.91;  -15.980;   -9.460;    0.000;-6.52000
 358.20;   -0.920;   -6.210;    0.000; 5.29000
 358.50;   15.620;   -0.320;    0.000;15.94000
 358.79;    0.680;   -0.240;    0.000; 0.92000
 359.09;   14.420;    4.600;    0.000; 9.82000
 359.38;    8.980;   -4.910;    0.000;13.89000
 359.68;   -8.120;   -6.920;    0.000;-1.20000
 359.98;    9.720;   -3.210;    0.000;12.93000
 360.27;    8.940;   -5.880;    0.000;14.82000
 360.57;   -7.820;   -6.850;    0.000;-0.97000
 360.86;   22.760;   -3.030;    0.000;25.79000
 361.16;   -2.940;  -10.940;    0.000; 8.00000
 361.45;    5.200;   -3.610;    0.000; 8.81000
 361.75;   -0.400;   -6.330;    0.000; 5.93000
 362.04;   37.780;    7.330;    0.000;30.45000
 362.34;    2.960;   -8.080;    0.000;11.04000
 362.64;   10.180;   -4.150;    0.000;14.33000
 362.93;    2.860;  -11.650;    0.000;14.51000
 363.23;   -0.600;   -3.380;    0.000; 2.78000
 363.52;   -2.180;   -7.930;    0.000; 5.75000
 363.82;    9.300;   -3.630;    0.000;12.93000
 364.11;   14.760;   -3.640;    0.000;18.40000
 364.41;   -0.040;   -7.090;    0.000; 7.05000
 364.70;   -3.080;   -9.000;    0.000; 5.92000
 365.00;   15.180;    0.260;    0.000;14.92000
 365.29;    3.940;   -7.370;    0.000;11.31000
 365.59;   -5.400;   -3.180;    0.000;-2.22000
 365.88;    0.040;  -15.140;    0.000;15.18000
 366.18;    2.540;   -3.430;    0.000; 5.97000
 366.47;   -2.140;   -8.280;    0.000; 6.14000
 366.77;    5.020;   -6.540;    0.000;11.56000
 367.06;    0.620;   -3.040;    0.000; 3.66000
 367.36;   16.420;   -6.830;    0.000;23.25000
 367.65;   15.120;   -1.150;    0.000;16.27000
 367.95;    7.480;   -6.850;    0.000;14.33000
 368.24;    4.480;   -4.930;    0.000; 9.41000
 368.54;    0.100;  -13.980;    0.000;14.08000
 368.83;   11.000;   -1.360;    0.000;12.36000
 369.13;   17.800;   -2.650;    0.000;20.45000
 369.42;    2.680;   -5.530;    0.000; 8.21000
 369.72;    9.580;   -9.410;    0.000;18.99000
 370.01;   -2.920;   -1.870;    0.000;-1.05000
 370.31;    9.540;    2.490;    0.000; 7.05000
 370.60;   41.840;   -0.490;    0.000;42.33000
 370.90;   14.920;   -4.910;    0.000;19.83000
 371.19;   -7.980;   -8.640;    0.000; 0.66000
 371.49;    2.200;  -15.270;    0.000;17.47000
 371.78;   -6.140;  -12.190;    0.000; 6.05000
 372.08;    8.300;   -4.150;    0.000;12.45000
 372.37;    1.140;   -7.430;    0.000; 8.57000
 372.67;   11.740;   -1.910;    0.000;13.65000
 372.96;   -2.140;   -4.090;    0.000; 1.95000
 373.26;   -2.240;  -11.210;    0.000; 8.97000
 373.55;    4.760;   -3.340;    0.000; 8.10000
 373.85;   -0.620;  -14.000;    0.000;13.38000
 374.14;   20.940;   -0.440;    0.000;21.38000
 374.43;    2.600;   -4.860;    0.000; 7.46000
 374.73;    4.860;   -5.870;    0.000;10.73000
 375.02;    8.760;   -6.640;    0.000;15.40000
 375.32;   -2.160;   -8.860;    0.000; 6.70000
 375.61;    9.340;   -4.690;    0.000;14.03000
 375.91;   -1.660;   -6.400;    0.000; 4.74000
 376.20;  -12.840;   -8.800;    0.000;-4.04000
 376.50;  -12.880;   -2.750;    0.000;-10.13000
 376.79;   -7.520;  -12.990;    0.000; 5.47000
 377.08;   -4.700;   -9.810;    0.000; 5.11000
 377.38;   -2.100;   -9.410;    0.000; 7.31000
 377.67;   -9.080;  -15.820;    0.000; 6.74000
 377.97;  -11.020;  -12.430;    0.000; 1.41000
 378.26;    7.820;   -3.550;    0.000;11.37000
 378.56;  -15.300;  -11.760;    0.000;-3.54000
 378.85;   12.540;   -6.770;    0.000;19.31000
 379.14;   -2.060;  -10.870;    0.000; 8.81000
 379.44;   -5.600;   -7.950;    0.000; 2.35000
 379.73;    6.120;  -12.070;    0.000;18.19000
 380.03;   13.620;  -10.640;    0.000;24.26000
 380.32;    1.460;  -10.740;    0.000;12.20000
 380.62;    0.420;  -11.160;    0.000;11.58000
 380.91;   11.220;   -2.790;    0.000;14.01000
 381.20;    8.040;   -6.380;    0.000;14.42000
 381.50;    0.880;   -6.110;    0.000; 6.99000
 381.79;   -4.640;   -7.870;    0.000; 3.23000
 382.09;    6.140;   -7.030;    0.000;13.17000
 382.38;   -2.380;  -10.330;    0.000; 7.95000
 382.67;    6.380;  -10.730;    0.000;17.11000
 382.97;    6.260;   -5.370;    0.000;11.63000
 383.26;    6.600;   -3.260;    0.000; 9.86000
 383.56;   19.620;   -3.260;    0.000;22.88000
 383.85;   -2.520;  -12.650;    0.000;10.13000
 384.14;   13.840;    0.820;    0.000;13.02000
 384.44;   -3.780;   -6.530;    0.000; 2.75000
 384.73;   -2.680;   -5.430;    0.000; 2.75000
 385.02;   13.880;   -6.450;    0.000;20.33000
 385.32;    4.160;   -4.570;    0.000; 8.73000
 385.61;  -13.860;  -16.270;    0.000; 2.41000
 385.91;    3.700;   -9.440;    0.000;13.14000
 386.20;   -6.200;  -10.110;    0.000; 3.91000
 386.49;   -2.320;  -14.900;    0.000;12.58000
 386.79;   13.640;   -7.340;    0.000;20.98000
 387.08;    2.140;   -6.300;    0.000; 8.44000
 387.37;    5.460;   -8.420;    0.000;13.88000
 387.67;   10.220;   -6.130;    0.000;16.35000
 387.96;   -4.800;   -9.280;    0.000; 4.48000
 388.25;    1.140;   -1.410;    0.000; 2.55000
 388.55;   -5.880;  -10.080;    0.000; 4.20000
 388.84;   -4.460;  -12.690;    0.000; 8.23000
 389.14;    4.960;  -11.090;    0.000;16.05000
 389.43;    4.440;   -9.030;    0.000;13.47000
 389.72;   -0.040;  -13.300;    0.000;13.26000
 390.02;   -4.480;   -9.420;    0.000; 4.94000
 390.31;    7.880;   -2.070;    0.000; 9.95000
 390.60;   -0.560;   -4.250;    0.000; 3.69000
 390.90;   -4.820;  -15.000;    0.000;10.18000
 391.19;    0.480;   -8.270;    0.000; 8.75000
 391.48;   -0.140;  -13.200;    0.000;13.06000
 391.78;   -0.660;   -9.570;    0.000; 8.91000
 392.07;   77.600;   16.810;    0.000;60.79000
 392.36;   26.740;   -1.800;    0.000;28.54000
 392.66;    0.580;  -11.850;    0.000;12.43000
 392.95;   -2.580;  -10.380;    0.000; 7.80000
 393.24;   -6.120;  -20.110;    0.000;13.99000
 393.53;   -3.820;   -8.500;    0.000; 4.68000
 393.83;   -8.280;  -10.870;    0.000; 2.59000
 394.12;    7.220;  -16.700;    0.000;23.92000
 394.41;    1.640;  -13.050;    0.000;14.69000
 394.71;   -6.680;   -7.960;    0.000; 1.28000
 395.00;    1.880;  -12.500;    0.000;14.38000
 395.29;    5.860;   -8.400;    0.000;14.26000
 395.59;  -13.640;  -20.950;    0.000; 7.31000
 395.88;  -10.520;  -16.060;    0.000; 5.54000
 396.17;    0.560;   -8.460;    0.000; 9.02000
 396.46;   17.520;   -3.560;    0.000;21.08000
 396.76;   -1.060;  -13.050;    0.000;11.99000
 397.05;   25.360;    2.180;    0.000;23.18000
 397.34;   -1.240;  -20.090;    0.000;18.85000
 397.64;   -1.160;   -9.050;    0.000; 7.89000
 397.93;   -3.000;  -18.420;    0.000;15.42000
 398.22;  -12.040;  -12.920;    0.000; 0.88000
 398.51;    4.180;   -9.770;    0.000;13.95000
 398.81;   -6.520;  -12.510;    0.000; 5.99000
 399.10;    7.380;   -2.690;    0.000;10.07000
 399.39;    5.780;  -11.900;    0.000;17.68000
 399.69;    4.400;  -13.740;    0.000;18.14000
 399.98;   -6.000;   -4.100;    0.000;-1.90000
 400.27;   -8.880;  -13.520;    0.000; 4.64000
 400.56;   -3.780;  -16.060;    0.000;12.28000
 400.86;   -7.640;  -13.820;    0.000; 6.18000
 401.15;   10.080;   -4.180;    0.000;14.26000
 401.44;   -2.880;  -15.730;    0.000;12.85000
 401.73;    9.660;   -2.540;    0.000;12.20000
 402.03;    5.620;  -10.300;    0.000;15.92000
 402.32;   -7.200;  -17.030;    0.000; 9.83000
 402.61;    3.360;   -9.950;    0.000;13.31000
 402.90;   -5.440;  -11.420;    0.000; 5.98000
 403.20;   -1.040;   -6.220;    0.000; 5.18000
 403.49;    7.280;   -6.030;    0.000;13.31000
 403.78;    4.500;  -11.040;    0.000;15.54000
 404.07;  -13.980;  -18.650;    0.000; 4.67000
 404.37;    2.820;  -10.470;    0.000;13.29000
 404.66;    0.920;  -14.960;    0.000;15.88000
 404.95;   14.720;   -0.330;    0.000;15.05000
 405.24;  -18.760;  -15.620;    0.000;-3.14000
 405.53;    0.560;  -15.660;    0.000;16.22000
 405.83;   -2.040;   -4.700;    0.000; 2.66000
 406.12;    3.380;  -10.900;    0.000;14.28000
 406.41;   20.900;   -6.740;    0.000;27.64000
 406.70;  -10.320;  -12.650;    0.000; 2.33000
 407.00;   -2.820;   -5.150;    0.000; 2.33000
 407.29;   -2.140;  -10.150;    0.000; 8.01000
 407.58;   -8.000;  -15.850;    0.000; 7.85000
 407.87;   -1.240;  -15.280;    0.000;14.04000
 408.16;   -7.220;  -17.930;    0.000;10.71000
 408.46;  -13.160;  -11.550;    0.000;-1.61000
 408.75;   -3.520;  -11.910;    0.000; 8.39000
 409.04;    1.520;   -9.380;    0.000;10.90000
 409.33;   -1.540;   -5.530;    0.000; 3.99000
 409.62;    6.900;   -9.060;    0.000;15.96000
 409.92;    7.240;   -7.890;    0.000;15.13000
 410.21;   -1.120;  -11.510;    0.000;10.39000
 410.50;   -9.100;  -15.240;    0.000; 6.14000
 410.79;   12.600;   -3.910;    0.000;16.51000
 411.08;    3.180;  -18.230;    0.000;21.41000
 411.37;  -14.800;  -12.950;    0.000;-1.85000
 411.67;   -0.780;  -15.120;    0.000;14.34000
 411.96;   -0.700;  -13.530;    0.000;12.83000
 412.25;    2.080;  -11.720;    0.000;13.80000
 412.54;   -2.440;  -14.570;    0.000;12.13000
 412.83;  -12.300;  -15.690;    0.000; 3.39000
 413.13;    6.060;  -12.520;    0.000;18.58000
 413.42;    0.800;  -11.540;    0.000;12.34000
 413.71;    6.620;  -16.160;    0.000;22.78000
 414.00;   -5.840;  -15.050;    0.000; 9.21000
 414.29;    2.880;  -10.400;    0.000;13.28000
 414.58;   -7.240;  -20.050;    0.000;12.81000
 414.87;   -4.420;  -11.570;    0.000; 7.15000
 415.17;  -11.040;  -14.460;    0.000; 3.42000
 415.46;    2.000;  -14.740;    0.000;16.74000
 415.75;   -3.340;  -15.050;    0.000;11.71000
 416.04;    3.680;  -19.580;    0.000;23.26000
 416.33;    0.400;  -10.240;    0.000;10.64000
 416.62;   -4.800;  -16.750;    0.000;11.95000
 416.91;   -0.080;   -9.630;    0.000; 9.55000
 417.21;   -6.340;   -9.770;    0.000; 3.43000
 417.50;   -1.780;  -22.390;    0.000;20.61000
 417.79;  -12.920;  -14.440;    0.000; 1.52000
 418.08;   -9.860;  -16.260;    0.000; 6.40000
 418.37;   -5.460;  -12.710;    0.000; 7.25000
 418.66;    1.800;  -14.780;    0.000;16.58000
 418.95;   18.280;  -12.220;    0.000;30.50000
 419.24;   -0.280;  -16.910;    0.000;16.63000
 419.54;   -1.640;  -14.290;    0.000;12.65000
 419.83;   -1.800;   -7.000;    0.000; 5.20000
 420.12;   -5.460;  -17.080;    0.000;11.62000
 420.41;   17.260;   -6.120;    0.000;23.38000
 420.70;   -0.220;  -15.970;    0.000;15.75000
 420.99;   -6.580;   -7.860;    0.000; 1.28000
 421.28;   -5.720;  -14.590;    0.000; 8.87000
 421.57;    4.400;  -13.670;    0.000;18.07000
 421.86;   21.740;   -3.720;    0.000;25.46000
 422.16;    1.520;   -4.790;    0.000; 6.31000
 422.45;   -1.180;   -7.870;    0.000; 6.69000
 422.74;   -3.160;  -11.510;    0.000; 8.35000
 423.03;   -2.040;   -8.230;    0.000; 6.19000
 423.32;   -1.080;  -16.280;    0.000;15.20000
 423.61;   16.600;  -10.700;    0.000;27.30000
 423.90;   -2.540;  -18.810;    0.000;16.27000
 424.19;   50.540;    3.040;    0.000;47.50000
 424.48;    2.360;  -13.640;    0.000;16.00000
 424.77;   -0.260;  -15.110;    0.000;14.85000
 425.06;    4.680;   -8.550;    0.000;13.23000
 425.35;    8.640;  -12.070;    0.000;20.71000
 425.65;   -8.060;  -12.850;    0.000; 4.79000
 425.94;   -8.940;  -13.500;    0.000; 4.56000
 426.23;  -14.400;  -18.630;    0.000; 4.23000
 426.52;   -7.440;  -18.760;    0.000;11.32000
 426.81;   23.980;   -4.960;    0.000;28.94000
 427.10;   -1.680;  -18.640;    0.000;16.96000
 427.39;    1.520;  -17.730;    0.000;19.25000
 427.68;   -5.680;   -6.060;    0.000; 0.38000
 427.97;   11.500;   -9.970;    0.000;21.47000
 428.26;   -0.060;  -21.550;    0.000;21.49000
 428.55;    6.840;   -7.010;    0.000;13.85000
 428.84;    7.120;  -15.510;    0.000;22.63000
 429.13;   -3.420;  -21.800;    0.000;18.38000
 429.42;    9.220;   -6.430;    0.000;15.65000
 429.71;   15.300;  -12.900;    0.000;28.20000
 430.00;    7.700;  -27.260;    0.000;34.96000
 430.29;   -6.860;  -18.790;    0.000;11.93000
 430.58;  -12.560;  -19.950;    0.000; 7.39000
 430.87;    1.000;  -18.710;    0.000;19.71000
 431.16;  -11.180;  -27.130;    0.000;15.95000
 431.46;   12.220;  -12.580;    0.000;24.80000
 431.75;  -12.500;  -16.460;    0.000; 3.96000
 432.04;   20.360;  -12.750;    0.000;33.11000
 432.33;   -1.760;  -15.960;    0.000;14.20000
 432.62;   10.720;  -16.610;    0.000;27.33000
 432.91;  -13.960;  -15.280;    0.000; 1.32000
 433.20;    3.840;  -14.090;    0.000;17.93000
 433.49;    1.260;  -21.180;    0.000;22.44000
 433.78;   -8.720;  -15.380;    0.000; 6.66000
 434.07;   -2.400;  -18.570;    0.000;16.17000
 434.36;   -5.020;  -18.360;    0.000;13.34000
 434.65;  -23.920;  -19.110;    0.000;-4.81000
 434.94;  -10.000;  -16.660;    0.000; 6.66000
 435.23;    7.120;  -14.870;    0.000;21.99000
 435.52;    4.960;  -15.280;    0.000;20.24000
 435.81;   -4.120;  -19.590;    0.000;15.47000
 436.10;    4.300;   -8.920;    0.000;13.22000
 436.39;    9.260;   -9.090;    0.000;18.35000
 436.68;   12.760;   -9.150;    0.000;21.91000
 436.97;   -4.200;  -17.940;    0.000;13.74000
 437.26;    2.020;  -11.060;    0.000;13.08000
 437.55;   10.620;  -14.150;    0.000;24.77000
 437.83;  -10.140;  -20.360;    0.000;10.22000
 438.12;  -12.640;  -19.980;    0.000; 7.34000
 438.41;    2.540;  -18.690;    0.000;21.23000
 438.70;   32.840;   -6.450;    0.000;39.29000
 438.99;   14.180;   -3.000;    0.000;17.18000
 439.28;    6.820;  -13.960;    0.000;20.78000
 439.57;   -5.680;   -8.660;    0.000; 2.98000
 439.86;  -12.680;  -20.460;    0.000; 7.78000
 440.15;    1.280;  -10.490;    0.000;11.77000
 440.44;    7.420;  -14.790;    0.000;22.21000
 440.73;   -5.680;  -19.990;    0.000;14.31000
 441.02;  -15.740;  -18.940;    0.000; 3.20000
 441.31;    5.920;  -17.020;    0.000;22.94000
 441.60;    6.400;  -10.820;    0.000;17.22000
 441.89;  -12.960;  -18.180;    0.000; 5.22000
 442.18;    1.460;  -11.380;    0.000;12.84000
 442.47;   -4.980;  -20.660;    0.000;15.68000
 442.76;   -0.880;  -17.440;    0.000;16.56000
 443.05;   19.520;   -6.670;    0.000;26.19000
 443.34;    0.960;  -21.050;    0.000;22.01000
 443.63;   -5.320;  -21.060;    0.000;15.74000
 443.91;    7.000;  -24.010;    0.000;31.01000
 444.20;   -2.940;  -15.210;    0.000;12.27000
 444.49;   -3.200;  -17.150;    0.000;13.95000
 444.78;   -1.600;  -10.890;    0.000; 9.29000
 445.07;   12.080;  -13.040;    0.000;25.12000
 445.36;  -29.500;  -25.850;    0.000;-3.65000
 445.65;    2.420;  -13.460;    0.000;15.88000
 445.94;  -15.120;  -17.420;    0.000; 2.30000
 446.23;   14.080;  -14.150;    0.000;28.23000
 446.52;   -0.940;  -19.520;    0.000;18.58000
 446.81;    1.200;  -16.560;    0.000;17.76000
 447.10;   -0.480;  -13.040;    0.000;12.56000
 447.38;   -0.720;  -16.320;    0.000;15.60000
 447.67;   12.780;  -14.960;    0.000;27.74000
 447.96;   -1.100;  -20.220;    0.000;19.12000
 448.25;   -4.100;  -17.610;    0.000;13.51000
 448.54;   -0.560;  -20.490;    0.000;19.93000
 448.83;   -4.180;  -21.650;    0.000;17.47000
 449.12;    0.060;  -24.330;    0.000;24.39000
 449.41;   14.980;  -17.380;    0.000;32.36000
 449.70;   -3.560;  -19.200;    0.000;15.64000
 449.98;   -5.760;  -18.990;    0.000;13.23000
 450.27;    5.060;  -10.630;    0.000;15.69000
 450.56;   -9.540;  -19.350;    0.000; 9.81000
 450.85;   -8.340;  -18.980;    0.000;10.64000
 451.14;   -9.520;  -18.310;    0.000; 8.79000
 451.43;   -2.960;  -19.640;    0.000;16.68000
 451.72;  -14.780;  -20.630;    0.000; 5.85000
 452.01;    7.440;  -12.200;    0.000;19.64000
 452.29;   -7.840;  -18.350;    0.000;10.51000
 452.58;   -4.520;  -25.270;    0.000;20.75000
 452.87;   -6.240;  -19.090;    0.000;12.85000
 453.16;   -7.380;  -11.330;    0.000; 3.95000
 453.45;   -1.680;  -14.720;    0.000;13.04000
 453.74;    6.240;  -10.690;    0.000;16.93000
 454.03;    0.660;  -21.930;    0.000;22.59000
 454.31;  -11.880;  -22.490;    0.000;10.61000
 454.60;  -21.020;  -21.160;    0.000; 0.14000
 454.89;    9.960;  -12.560;    0.000;22.52000
 455.18;   -5.920;  -24.060;    0.000;18.14000
 455.47;  -11.540;  -26.150;    0.000;14.61000
 455.76;   -2.740;  -27.400;    0.000;24.66000
 456.04;    4.760;  -25.580;    0.000;30.34000
 456.33;  -12.660;  -25.270;    0.000;12.61000
 456.62;   -6.100;  -18.480;    0.000;12.38000
 456.91;   -9.540;  -23.960;    0.000;14.42000
 457.20;   23.600;  -15.140;    0.000;38.74000
 457.49;   -6.140;  -14.830;    0.000; 8.69000
 457.77;  -10.400;  -20.000;    0.000; 9.60000
 458.06;   -0.160;  -12.460;    0.000;12.30000
 458.35;  -11.180;  -24.180;    0.000;13.00000
 458.64;   -3.840;  -11.000;    0.000; 7.16000
 458.93;    3.600;  -15.890;    0.000;19.49000
 459.21;   -6.560;  -21.440;    0.000;14.88000
 459.50;    0.560;  -22.030;    0.000;22.59000
 459.79;   -4.240;  -19.740;    0.000;15.50000
 460.08;   -3.660;  -20.210;    0.000;16.55000
 460.37;   -8.440;  -17.330;    0.000; 8.89000
 460.65;   -1.020;  -20.980;    0.000;19.96000
 460.94;  -10.700;  -24.100;    0.000;13.40000
 461.23;   11.880;  -16.720;    0.000;28.60000
 461.52;   17.120;  -10.800;    0.000;27.92000
 461.81;   -6.260;  -18.200;    0.000;11.94000
 462.09;    3.460;  -16.530;    0.000;19.99000
 462.38;  -17.900;  -21.390;    0.000; 3.49000
 462.67;  -15.760;  -25.110;    0.000; 9.35000
 462.96;    3.900;  -24.230;    0.000;28.13000
 463.24;   -1.420;  -23.650;    0.000;22.23000
 463.53;    2.280;  -17.480;    0.000;19.76000
 463.82;  -16.720;  -19.800;    0.000; 3.08000
 464.11;   -2.360;  -21.730;    0.000;19.37000
 464.40;   -2.160;  -22.130;    0.000;19.97000
 464.68;  -18.220;  -21.480;    0.000; 3.26000
 464.97;   -0.440;  -19.470;    0.000;19.03000
 465.26;    2.740;  -17.460;    0.000;20.20000
 465.55;   -5.340;  -20.890;    0.000;15.55000
 465.83;   -6.220;  -20.920;    0.000;14.70000
 466.12;  -15.400;  -22.340;    0.000; 6.94000
 466.41;   -1.080;  -21.380;    0.000;20.30000
 466.70;   -6.440;  -23.610;    0.000;17.17000
 466.98;  -11.320;  -20.090;    0.000; 8.77000
 467.27;   12.160;  -18.760;    0.000;30.92000
 467.56;   14.420;  -20.980;    0.000;35.40000
 467.85;    3.900;  -15.930;    0.000;19.83000
 468.13;   -5.220;  -14.330;    0.000; 9.11000
 468.42;   -2.700;  -17.700;    0.000;15.00000
 468.71;    3.920;  -20.100;    0.000;24.02000
 468.99;   -1.180;  -17.320;    0.000;16.14000
 469.28;   -2.140;  -22.330;    0.000;20.19000
 469.57;  -12.040;  -21.170;    0.000; 9.13000
 469.86;    0.180;  -18.660;    0.000;18.84000
 470.14;  -14.540;  -24.400;    0.000; 9.86000
 470.43;    8.800;  -16.250;    0.000;25.05000
 470.72;   -8.800;  -27.700;    0.000;18.90000
 471.00;   -6.480;  -21.470;    0.000;14.99000
 471.29;   14.320;  -12.190;    0.000;26.51000
 471.58;   17.440;  -14.440;    0.000;31.88000
 471.87;    1.320;  -20.260;    0.000;21.58000
 472.15;   -3.600;  -27.280;    0.000;23.68000
 472.44;   14.300;  -13.550;    0.000;27.85000
 472.73;  -12.240;  -28.340;    0.000;16.10000
 473.01;   -9.980;  -26.320;    0.000;16.34000
 473.30;   -3.500;  -23.100;    0.000;19.60000
 473.59;   -6.800;  -19.590;    0.000;12.79000
 473.87;    8.160;  -19.240;    0.000;27.40000
 474.16;   -3.940;  -20.110;    0.000;16.17000
 474.45;    5.200;  -30.440;    0.000;35.64000
 474.74;   -9.160;  -22.750;    0.000;13.59000
 475.02;    7.120;  -15.460;    0.000;22.58000
 475.31;    7.000;  -20.200;    0.000;27.20000
 475.60;   11.740;  -27.200;    0.000;38.94000
 475.88;    9.520;  -25.920;    0.000;35.44000
 476.17;   20.780;  -16.890;    0.000;37.67000
 476.46;    1.520;  -20.900;    0.000;22.42000
 476.74;   -5.780;  -23.070;    0.000;17.29000
 477.03;  -13.500;  -22.890;    0.000; 9.39000
 477.32;    3.120;  -21.040;    0.000;24.16000
 477.60;    3.160;  -24.890;    0.000;28.05000
 477.89;   10.260;  -14.910;    0.000;25.17000
 478.18;    9.800;  -15.900;    0.000;25.70000
 478.46;    3.900;  -19.520;    0.000;23.42000
 478.75;  -10.540;  -18.520;    0.000; 7.98000
 479.03;  -12.500;  -17.330;    0.000; 4.83000
 479.32;   -2.220;  -26.670;    0.000;24.45000
 479.61;    2.980;  -32.440;    0.000;35.42000
 479.89;   -0.400;  -24.740;    0.000;24.34000
 480.18;   12.600;  -21.450;    0.000;34.05000
 480.47;   18.240;  -18.220;    0.000;36.46000
 480.75;    2.620;  -29.820;    0.000;32.44000
 481.04;   -1.200;  -20.400;    0.000;19.20000
 481.33;   11.800;  -16.240;    0.000;28.04000
 481.61;   -4.880;  -20.830;    0.000;15.95000
 481.90;   -6.760;  -33.240;    0.000;26.48000
 482.18;   16.600;  -23.490;    0.000;40.09000
 482.47;   14.200;  -18.580;    0.000;32.78000
 482.76;    9.820;  -24.650;    0.000;34.47000
 483.04;   -1.560;  -22.560;    0.000;21.00000
 483.33;    3.320;  -27.450;    0.000;30.77000
 483.61;    4.260;  -18.390;    0.000;22.65000
 483.90;    6.180;  -22.630;    0.000;28.81000
 484.19;   10.740;  -31.890;    0.000;42.63000
 484.47;    9.240;  -27.650;    0.000;36.89000
 484.76;   -0.320;  -22.480;    0.000;22.16000
 485.05;   14.000;  -15.900;    0.000;29.90000
 485.33;   26.240;  -20.520;    0.000;46.76000
 485.62;    6.640;  -23.220;    0.000;29.86000
 485.90;   12.900;  -19.330;    0.000;32.23000
 486.19;   11.220;  -21.960;    0.000;33.18000
 486.47;   35.800;  -17.750;    0.000;53.55000
 486.76;   13.500;  -32.110;    0.000;45.61000
 487.05;   42.000;  -21.590;    0.000;63.59000
 487.33;   25.000;  -24.120;    0.000;49.12000
 487.62;   32.740;  -27.370;    0.000;60.11000
 487.90;   32.860;  -24.640;    0.000;57.50000
 488.19;   41.060;  -17.250;    0.000;58.31000
 488.47;   52.320;  -20.280;    0.000;72.60000
 488.76;   47.820;  -22.200;    0.000;70.02000
 489.05;   68.220;  -13.720;    0.000;81.94000
 489.33;   58.180;  -24.060;    0.000;82.24000
 489.62;   63.360;  -27.760;    0.000;91.12000
 489.90;   54.620;  -29.230;    0.000;83.85000
 490.19;   82.500;  -20.080;    0.000;102.58000
 490.47;   94.080;  -27.170;    0.000;121.25000
 490.76;   89.740;  -30.390;    0.000;120.13000
 491.05;  119.400;  -18.700;    0.000;138.10000
 491.33;  124.220;  -19.160;    0.000;143.38000
 491.62;  115.060;  -30.080;    0.000;145.14000
 491.90;  134.320;  -24.970;    0.000;159.29001
 492.19;  149.800;  -29.880;    0.000;179.68000
 492.47;  166.900;  -26.010;    0.000;192.90999
 492.76;  184.620;  -25.800;    0.000;210.41999
 493.04;  222.920;  -23.090;    0.000;246.01000
 493.33;  217.720;  -29.680;    0.000;247.40000
 493.61;  243.920;  -28.280;    0.000;272.20000
 493.90;  290.860;  -25.470;    0.000;316.32998
 494.18;  308.740;  -21.360;    0.000;330.09999
 494.47;  339.040;  -21.500;    0.000;360.54001
 494.75;  351.020;  -25.740;    0.000;376.75999
 495.04;  413.740;  -25.010;    0.000;438.74999
 495.32;  435.240;  -24.280;    0.000;459.51999
 495.61;  475.760;  -26.390;    0.000;502.15001
 495.89;  507.020;  -25.210;    0.000;532.22999
 496.18;  549.140;  -24.900;    0.000;574.04001
 496.46;  604.680;  -25.570;    0.000;630.24999
 496.75;  647.940;  -19.200;    0.000;667.14000
 497.03;  704.600;  -21.850;    0.000;726.44998
 497.32;  767.000;  -28.930;    0.000;795.93000
 497.60;  806.580;  -27.460;    0.000;834.04002
 497.89;  859.260;  -26.060;    0.000;885.32001
 498.17;  946.640;  -23.200;    0.000;969.84002
 498.46; 1001.800;  -31.150;    0.000;1032.94999
 498.74; 1061.520;  -21.420;    0.000;1082.94002
 499.03; 1148.080;  -27.500;    0.000;1175.57996
 499.31; 1218.760;  -33.980;    0.000;1252.74001
 499.60; 1304.640;  -26.560;    0.000;1331.20001
 499.88; 1409.540;  -13.310;    0.000;1422.85004
 500.17; 1466.680;  -32.950;    0.000;1499.63005
 500.45; 1569.820;  -26.850;    0.000;1596.66995
 500.74; 1639.900;  -32.110;    0.000;1672.01003
 501.02; 1763.480;  -28.340;    0.000;1791.81998
 501.31; 1851.060;  -30.740;    0.000;1881.80006
 501.59; 1968.640;  -22.990;    0.000;1991.63001
 501.88; 2062.440;  -24.540;    0.000;2086.97994
 502.16; 2179.520;  -33.190;    0.000;2212.71002
 502.45; 2308.720;  -27.850;    0.000;2336.56997
 502.73; 2408.560;  -30.030;    0.000;2438.59006
 503.01; 2550.900;  -26.800;    0.000;2577.69990
 503.30; 2650.860;  -26.540;    0.000;2677.40011
 503.58; 2777.980;  -37.970;    0.000;2815.94998
 503.87; 2915.560;  -21.070;    0.000;2936.63006
 504.15; 3034.560;  -31.700;    0.000;3066.26006
 504.44; 3219.200;  -22.380;    0.000;3241.57995
 504.72; 3359.640;  -16.240;    0.000;3375.87989
 505.00; 3466.220;  -31.090;    0.000;3497.30997
 505.29; 3641.540;  -18.750;    0.000;3660.29004
 505.57; 3796.200;  -26.120;    0.000;3822.31995
 505.86; 3971.420;  -30.130;    0.000;4001.54992
 506.14; 4104.460;  -40.580;    0.000;4145.03996
 506.43; 4280.380;  -16.980;    0.000;4297.35988
 506.71; 4449.660;  -26.380;    0.000;4476.04016
 506.99; 4609.820;  -33.030;    0.000;4642.84982
 507.28; 4755.840;  -27.620;    0.000;4783.45984
 507.56; 4938.500;  -28.400;    0.000;4966.90000
 507.85; 5098.220;  -26.630;    0.000;5124.85021
 508.13; 5313.180;  -23.390;    0.000;5336.57018
 508.41; 5519.740;  -13.300;    0.000;5533.04023
 508.70; 5705.700;  -30.090;    0.000;5735.79020
 508.98; 5876.560;  -29.260;    0.000;5905.82006
 509.27; 6058.440;  -34.820;    0.000;6093.25994
 509.55; 6235.580;  -20.900;    0.000;6256.48008
 509.83; 6433.800;  -32.250;    0.000;6466.04980
 510.12; 6646.380;  -25.080;    0.000;6671.45988
 510.40; 6806.040;  -26.530;    0.000;6832.57004
 510.69; 7027.340;  -26.360;    0.000;7053.69984
 510.97; 7221.740;  -25.960;    0.000;7247.70023
 511.25; 7413.780;  -25.560;    0.000;7439.33978
 511.54; 7658.280;  -32.180;    0.000;7690.45979
 511.82; 7864.720;  -23.410;    0.000;7888.13021
 512.11; 8045.340;  -28.130;    0.000;8073.46984
 512.39; 8217.040;  -32.100;    0.000;8249.14004
 512.67; 8428.760;  -23.390;    0.000;8452.14977
 512.96; 8679.960;  -27.360;    0.000;8707.31996
 513.24; 8874.100;  -25.540;    0.000;8899.63961
 513.52; 9028.740;  -20.710;    0.000;9049.45023
 513.81; 9169.900;  -27.450;    0.000;9197.35039
 514.09; 9390.160;  -31.630;    0.000;9421.79016
 514.37; 9620.400;  -28.900;    0.000;9649.30039
 514.66; 9774.320;  -26.830;    0.000;9801.15031
 514.94;10042.740;  -30.930;    0.000;10073.67023
 515.22;10247.860;  -20.740;    0.000;10268.60035
 515.51;10390.640;  -28.110;    0.000;10418.74965
 515.79;10629.760;  -30.680;    0.000;10660.43977
 516.07;10843.980;  -21.420;    0.000;10865.40047
 516.36;11036.780;  -30.450;    0.000;11067.23027
 516.64;11258.120;  -27.560;    0.000;11285.68012
 516.92;11472.860;  -28.140;    0.000;11501.00035
 517.21;11650.340;  -33.670;    0.000;11684.00984
 517.49;11930.700;  -21.660;    0.000;11952.36020
 517.77;12206.880;  -23.850;    0.000;12230.72988
 518.06;12331.980;  -35.280;    0.000;12367.26047
 518.34;12498.060;  -22.260;    0.000;12520.31957
 518.62;12762.280;  -18.090;    0.000;12780.37027
 518.91;12935.700;  -25.090;    0.000;12960.79020
 519.19;13112.540;  -29.320;    0.000;13141.86004
 519.47;13357.760;  -25.890;    0.000;13383.64977
 519.76;13480.580;  -20.890;    0.000;13501.47008
 520.04;13663.560;  -27.100;    0.000;13690.65957
 520.32;13916.460;  -24.040;    0.000;13940.49996
 520.61;14069.040;  -17.280;    0.000;14086.32004
 520.89;14248.900;  -26.150;    0.000;14275.05039
 521.17;14442.720;  -27.250;    0.000;14469.96973
 521.45;14634.660;  -26.190;    0.000;14660.85016
 521.74;14784.740;  -27.770;    0.000;14812.51023
 522.02;15025.020;  -32.340;    0.000;15057.35953
 522.30;15196.220;  -30.190;    0.000;15226.40973
 522.59;15335.860;  -17.950;    0.000;15353.81035
 522.87;15503.700;  -35.830;    0.000;15539.53020
 523.15;15670.240;  -22.330;    0.000;15692.57023
 523.43;15817.700;  -36.850;    0.000;15854.55019
 523.72;16024.820;  -22.470;    0.000;16047.29031
 524.00;16160.000;  -26.840;    0.000;16186.84000
 524.28;16287.280;  -30.100;    0.000;16317.38027
 524.57;16472.061;  -28.250;    0.000;16500.31055
 524.85;16540.600;  -33.210;    0.000;16573.80961
 525.13;16740.900;  -28.900;    0.000;16769.80039
 525.41;16882.520;  -26.930;    0.000;16909.44953
 525.70;17054.340;  -39.770;    0.000;17094.10984
 525.98;17178.080;  -28.770;    0.000;17206.85008
 526.26;17337.000;  -28.530;    0.000;17365.53000
 526.54;17473.260;  -37.240;    0.000;17510.49977
 526.83;17674.080;  -31.260;    0.000;17705.34008
 527.11;17745.340;  -29.840;    0.000;17775.17984
 527.39;17936.840;  -27.920;    0.000;17964.75984
 527.67;18116.141;  -33.060;    0.000;18149.20063
 527.96;18180.939;  -33.590;    0.000;18214.52945
 528.24;18329.500;  -30.660;    0.000;18360.16000
 528.52;18476.859;  -24.870;    0.000;18501.72938
 528.80;18680.039;  -28.750;    0.000;18708.78906
 529.08;18696.260;  -34.880;    0.000;18731.13977
 529.37;18907.660;  -25.970;    0.000;18933.63016
 529.65;18923.260;  -21.850;    0.000;18945.10977
 529.93;19129.359;  -27.970;    0.000;19157.32937
 530.21;19233.141;  -33.080;    0.000;19266.22063
 530.50;19312.740;  -30.560;    0.000;19343.30023
 530.78;19430.740;  -27.290;    0.000;19458.03024
 531.06;19606.561;  -32.640;    0.000;19639.20055
 531.34;19725.520;  -31.410;    0.000;19756.92953
 531.62;19833.061;  -29.810;    0.000;19862.87055
 531.91;19909.520;  -33.270;    0.000;19942.78953
 532.19;19991.660;  -28.780;    0.000;20020.44016
 532.47;20137.660;  -30.330;    0.000;20167.99016
 532.75;20315.359;  -25.280;    0.000;20340.63938
 533.03;20304.900;  -26.860;    0.000;20331.76039
 533.32;20473.301;  -23.280;    0.000;20496.58078
 533.60;20513.840;  -34.090;    0.000;20547.92984
 533.88;20625.980;  -20.750;    0.000;20646.73047
 534.16;20796.340;  -30.960;    0.000;20827.29984
 534.44;20869.221;  -26.490;    0.000;20895.71070
 534.72;20917.619;  -32.560;    0.000;20950.17914
 535.01;21104.859;  -25.270;    0.000;21130.12938
 535.29;21145.660;  -23.350;    0.000;21169.01016
 535.57;21176.881;  -25.910;    0.000;21202.79086
 535.85;21300.721;  -23.170;    0.000;21323.89070
 536.13;21446.740;  -28.940;    0.000;21475.68023
 536.42;21539.141;  -27.660;    0.000;21566.80062
 536.70;21713.881;  -35.120;    0.000;21749.00086
 536.98;21802.641;  -22.910;    0.000;21825.55062
 537.26;21822.020;  -19.290;    0.000;21841.30953
 537.54;21872.199;  -26.340;    0.000;21898.53922
 537.82;22028.439;  -21.930;    0.000;22050.36945
 538.10;22054.779;  -27.700;    0.000;22082.47930
 538.39;22153.461;  -28.600;    0.000;22182.06094
 538.67;22203.980;  -27.310;    0.000;22231.29047
 538.95;22300.359;  -30.120;    0.000;22330.47938
 539.23;22380.939;  -22.970;    0.000;22403.90945
 539.51;22492.119;  -22.060;    0.000;22514.17914
 539.79;22484.580;  -26.640;    0.000;22511.22008
 540.07;22610.801;  -22.100;    0.000;22632.90078
 540.36;22645.820;  -30.750;    0.000;22676.57031
 540.64;22793.939;  -22.510;    0.000;22816.44945
 540.92;22849.141;  -30.820;    0.000;22879.96062
 541.20;22886.199;  -29.640;    0.000;22915.83922
 541.48;23080.740;  -12.470;    0.000;23093.21023
 541.76;23041.900;  -26.780;    0.000;23068.68039
 542.04;23137.721;  -23.270;    0.000;23160.99070
 542.32;23175.840;  -24.220;    0.000;23200.05984
 542.61;23263.680;  -33.520;    0.000;23297.19969
 542.89;23293.641;  -17.240;    0.000;23310.88062
 543.17;23372.119;  -25.240;    0.000;23397.35914
 543.45;23437.920;  -24.660;    0.000;23462.57992
 543.73;23494.580;  -28.070;    0.000;23522.65008
 544.01;23619.199;  -29.250;    0.000;23648.44922
 544.29;23667.820;  -19.640;    0.000;23687.46031
 544.57;23663.061;  -34.410;    0.000;23697.47055
 544.85;23753.439;  -23.490;    0.000;23776.92945
 545.13;23843.061;  -25.150;    0.000;23868.21055
 545.42;23803.420;  -24.120;    0.000;23827.53992
 545.70;23899.580;  -20.880;    0.000;23920.46008
 545.98;23977.439;  -22.690;    0.000;24000.12945
 546.26;23911.221;  -22.680;    0.000;23933.90070
 546.54;24051.641;  -26.680;    0.000;24078.32063
 546.82;24086.760;  -22.560;    0.000;24109.31977
 547.10;24101.641;  -25.490;    0.000;24127.13062
 547.38;24184.420;  -18.460;    0.000;24202.87992
 547.66;24191.141;  -24.450;    0.000;24215.59063
 547.94;24225.000;  -22.110;    0.000;24247.11000
 548.22;24187.100;  -28.020;    0.000;24215.11961
 548.50;24296.141;  -35.840;    0.000;24331.98063
 548.78;24287.961;  -28.210;    0.000;24316.17094
 549.06;24334.480;  -25.700;    0.000;24360.18047
 549.34;24326.260;  -30.930;    0.000;24357.18977
 549.63;24441.039;  -17.470;    0.000;24458.50906
 549.91;24376.199;  -26.020;    0.000;24402.21922
 550.19;24501.320;  -30.840;    0.000;24532.16031
 550.47;24545.961;  -33.570;    0.000;24579.53094
 550.75;24582.641;  -29.150;    0.000;24611.79062
 551.03;24621.859;  -31.230;    0.000;24653.08937
 551.31;24564.439;  -27.700;    0.000;24592.13945
 551.59;24571.740;  -27.320;    0.000;24599.06023
 551.87;24572.340;  -25.060;    0.000;24597.39984
 552.15;24596.600;  -29.650;    0.000;24626.24961
 552.43;24630.520;  -17.690;    0.000;24648.20953
 552.71;24700.199;  -26.730;    0.000;24726.92922
 552.99;24667.520;  -27.320;    0.000;24694.83953
 553.27;24750.600;  -33.900;    0.000;24784.49961
 553.55;24787.900;  -29.130;    0.000;24817.03039
 553.83;24824.600;  -34.100;    0.000;24858.69961
 554.11;24836.160;  -29.070;    0.000;24865.23016
 554.39;24836.859;  -17.350;    0.000;24854.20938
 554.67;24875.561;  -31.140;    0.000;24906.70055
 554.95;24860.660;  -15.790;    0.000;24876.45016
 555.23;24789.779;  -19.190;    0.000;24808.96930
 555.51;24776.301;  -23.860;    0.000;24800.16078
 555.79;24800.520;  -26.610;    0.000;24827.12953
 556.07;24709.141;  -33.750;    0.000;24742.89063
 556.35;24722.779;  -33.080;    0.000;24755.85930
 556.63;24726.580;  -23.190;    0.000;24749.77008
 556.91;24729.561;  -20.140;    0.000;24749.70055
 557.19;24773.160;  -33.420;    0.000;24806.58015
 557.47;24784.600;  -26.860;    0.000;24811.45961
 557.75;24851.160;  -27.600;    0.000;24878.76016
 558.03;24806.400;  -23.720;    0.000;24830.12039
 558.31;24849.779;  -32.820;    0.000;24882.59930
 558.59;24851.859;  -28.200;    0.000;24880.05938
 558.87;24808.119;  -31.300;    0.000;24839.41914
 559.15;24838.240;  -29.920;    0.000;24868.16023
 559.43;24770.301;  -31.700;    0.000;24802.00078
 559.71;24873.340;  -29.390;    0.000;24902.72984
 559.99;24835.301;  -29.950;    0.000;24865.25078
 560.27;24811.199;  -31.860;    0.000;24843.05922
 560.55;24775.061;  -27.330;    0.000;24802.39055
 560.82;24711.080;  -30.590;    0.000;24741.67008
 561.10;24769.359;  -35.810;    0.000;24805.16938
 561.38;24701.680;  -27.550;    0.000;24729.22969
 561.66;24650.160;  -27.770;    0.000;24677.93016
 561.94;24644.859;  -36.790;    0.000;24681.64938
 562.22;24763.260;  -29.270;    0.000;24792.52977
 562.50;24601.480;  -25.730;    0.000;24627.21047
 562.78;24605.000;  -28.210;    0.000;24633.21000
 563.06;24590.020;  -32.200;    0.000;24622.21953
 563.34;24537.961;  -32.310;    0.000;24570.27094
 563.62;24465.740;  -26.420;    0.000;24492.16023
 563.90;24455.100;  -33.310;    0.000;24488.40961
 564.18;24502.760;  -30.050;    0.000;24532.80976
 564.46;24444.961;  -33.070;    0.000;24478.03094
 564.74;24404.859;  -26.370;    0.000;24431.22938
 565.01;24328.859;  -34.630;    0.000;24363.48938
 565.29;24310.580;  -30.890;    0.000;24341.47008
 565.57;24230.779;  -27.770;    0.000;24258.54930
 565.85;24221.619;  -26.540;    0.000;24248.15914
 566.13;24218.721;  -35.020;    0.000;24253.74070
 566.41;24217.619;  -27.970;    0.000;24245.58914
 566.69;24089.660;  -26.850;    0.000;24116.51016
 566.97;24039.180;  -35.710;    0.000;24074.88969
 567.25;24092.660;  -26.920;    0.000;24119.58016
 567.53;24044.539;  -31.550;    0.000;24076.08906
 567.80;23946.340;  -29.830;    0.000;23976.16984
 568.08;23921.539;  -23.950;    0.000;23945.48906
 568.36;23855.279;  -39.610;    0.000;23894.88930
 568.64;23793.039;  -31.690;    0.000;23824.72906
 568.92;23815.279;  -24.250;    0.000;23839.52930
 569.20;23733.439;  -32.220;    0.000;23765.65945
 569.48;23651.939;  -33.550;    0.000;23685.48945
 569.76;23589.420;  -41.820;    0.000;23631.23992
 570.03;23558.859;  -26.520;    0.000;23585.37938
 570.31;23500.920;  -33.390;    0.000;23534.30992
 570.59;23423.400;  -29.380;    0.000;23452.78039
 570.87;23436.480;  -30.810;    0.000;23467.29047
 571.15;23338.400;  -35.650;    0.000;23374.05039
 571.43;23223.381;  -28.530;    0.000;23251.91086
 571.71;23167.580;  -40.130;    0.000;23207.71008
 571.98;23132.961;  -30.700;    0.000;23163.66094
 572.26;23091.000;  -33.520;    0.000;23124.52000
 572.54;23017.881;  -36.750;    0.000;23054.63086
 572.82;22920.420;  -35.020;    0.000;22955.43992
 573.10;23003.779;  -32.420;    0.000;23036.19930
 573.38;22789.061;  -33.880;    0.000;22822.94055
 573.66;22759.439;  -34.190;    0.000;22793.62945
 573.93;22737.260;  -33.870;    0.000;22771.12976
 574.21;22652.080;  -31.820;    0.000;22683.90008
 574.49;22726.721;  -31.910;    0.000;22758.63070
 574.77;22601.061;  -29.890;    0.000;22630.95055
 575.05;22526.881;  -22.870;    0.000;22549.75086
 575.33;22440.119;  -31.620;    0.000;22471.73914
 575.60;22376.119;  -29.990;    0.000;22406.10914
 575.88;22246.301;  -30.640;    0.000;22276.94078
 576.16;22154.680;  -31.370;    0.000;22186.04969
 576.44;22114.900;  -30.170;    0.000;22145.07039
 576.72;22014.199;  -30.330;    0.000;22044.52922
 576.99;21930.381;  -35.380;    0.000;21965.76086
 577.27;21881.939;  -32.010;    0.000;21913.94945
 577.55;21722.740;  -20.740;    0.000;21743.48023
 577.83;21617.721;  -38.350;    0.000;21656.07070
 578.11;21653.840;  -30.600;    0.000;21684.43984
 578.38;21545.240;  -33.300;    0.000;21578.54023
 578.66;21444.260;  -33.190;    0.000;21477.44976
 578.94;21461.119;  -34.250;    0.000;21495.36914
 579.22;21386.100;  -36.890;    0.000;21422.98961
 579.50;21323.760;  -16.500;    0.000;21340.25977
 579.77;21198.539;  -27.820;    0.000;21226.35906
 580.05;21097.779;  -33.860;    0.000;21131.63930
 580.33;21009.619;  -36.230;    0.000;21045.84914
 580.61;20877.740;  -31.810;    0.000;20909.55023
 580.88;20877.000;  -31.550;    0.000;20908.55000
 581.16;20728.740;  -30.380;    0.000;20759.12023
 581.44;20673.721;  -26.740;    0.000;20700.46070
 581.72;20557.320;  -36.870;    0.000;20594.19031
 581.99;20483.740;  -28.000;    0.000;20511.74023
 582.27;20405.699;  -32.620;    0.000;20438.31922
 582.55;20297.619;  -39.650;    0.000;20337.26914
 582.83;20292.199;  -31.420;    0.000;20323.61922
 583.10;20152.260;  -34.040;    0.000;20186.29977
 583.38;19978.260;  -33.790;    0.000;20012.04977
 583.66;19840.141;  -23.360;    0.000;19863.50063
 583.94;19773.199;  -37.120;    0.000;19810.31922
 584.21;19721.699;  -36.200;    0.000;19757.89922
 584.49;19631.400;  -31.210;    0.000;19662.61039
 584.77;19534.900;  -41.490;    0.000;19576.39039
 585.05;19505.699;  -41.880;    0.000;19547.57922
 585.32;19396.900;  -40.900;    0.000;19437.80039
 585.60;19225.920;  -35.320;    0.000;19261.23992
 585.88;19173.900;  -36.100;    0.000;19210.00039
 586.16;18997.740;  -33.460;    0.000;19031.20023
 586.43;19011.500;  -23.040;    0.000;19034.54000
 586.71;18848.820;  -33.020;    0.000;18881.84031
 586.99;18726.740;  -38.700;    0.000;18765.44024
 587.26;18705.221;  -39.100;    0.000;18744.32070
 587.54;18612.260;  -29.820;    0.000;18642.07977
 587.82;18474.180;  -31.730;    0.000;18505.90969
 588.10;18274.119;  -35.850;    0.000;18309.96914
 588.37;18228.480;  -41.630;    0.000;18270.11047
 588.65;18124.980;  -32.470;    0.000;18157.45047
 588.93;18031.641;  -32.150;    0.000;18063.79063
 589.20;17950.279;  -34.030;    0.000;17984.30930
 589.48;17848.420;  -34.930;    0.000;17883.34992
 589.76;17795.061;  -15.830;    0.000;17810.89055
 590.03;17666.840;  -40.290;    0.000;17707.12984
 590.31;17589.320;  -33.480;    0.000;17622.80031
 590.59;17412.760;  -33.000;    0.000;17445.75977
 590.86;17298.859;  -31.500;    0.000;17330.35938
 591.14;17199.699;  -37.450;    0.000;17237.14922
 591.42;17141.420;  -37.920;    0.000;17179.33992
 591.70;17075.600;  -32.300;    0.000;17107.89961
 591.97;16971.160;  -26.470;    0.000;16997.63016
 592.25;16739.539;  -31.490;    0.000;16771.02906
 592.53;16785.939;  -39.370;    0.000;16825.30945
 592.80;16617.100;  -30.970;    0.000;16648.06961
 593.08;16500.400;  -28.190;    0.000;16528.59039
 593.36;16379.580;  -33.690;    0.000;16413.27008
 593.63;16326.560;  -28.510;    0.000;16355.06957
 593.91;16216.300;  -39.300;    0.000;16255.59980
 594.18;16173.740;  -30.740;    0.000;16204.48023
 594.46;15993.920;  -37.200;    0.000;16031.11992
 594.74;15903.280;  -35.270;    0.000;15938.55027
 595.01;15790.500;  -39.910;    0.000;15830.41000
 595.29;15677.080;  -37.830;    0.000;15714.91008
 595.57;15610.300;  -30.310;    0.000;15640.60980
 595.84;15455.220;  -34.070;    0.000;15489.28973
 596.12;15319.300;  -35.950;    0.000;15355.24981
 596.40;15232.860;  -47.400;    0.000;15280.26035
 596.67;15170.680;  -33.240;    0.000;15203.91969
 596.95;15001.620;  -31.840;    0.000;15033.46012
 597.22;14979.960;  -42.200;    0.000;15022.15996
 597.50;14806.540;  -33.310;    0.000;14839.85004
 597.78;14804.520;  -35.870;    0.000;14840.38953
 598.05;14634.660;  -42.370;    0.000;14677.03016
 598.33;14513.860;  -31.360;    0.000;14545.22035
 598.61;14429.420;  -34.100;    0.000;14463.51992
 598.88;14324.080;  -43.010;    0.000;14367.09008
 599.16;14200.420;  -38.270;    0.000;14238.68992
 599.43;14127.660;  -44.250;    0.000;14171.91016
 599.71;14050.780;  -31.350;    0.000;14082.13027
 599.99;13901.840;  -40.440;    0.000;13942.27984
 600.26;13808.960;  -34.480;    0.000;13843.43996
 600.54;13693.900;  -35.880;    0.000;13729.78039
 600.81;13654.620;  -30.800;    0.000;13685.42012
 601.09;13510.420;  -38.420;    0.000;13548.83992
 601.36;13379.520;  -43.640;    0.000;13423.15953
 601.64;13393.040;  -36.270;    0.000;13429.31004
 601.92;13220.520;  -40.290;    0.000;13260.80953
 602.19;13156.360;  -43.490;    0.000;13199.85035
 602.47;13023.760;  -41.720;    0.000;13065.47977
 602.74;12952.920;  -33.580;    0.000;12986.49992
 603.02;12826.440;  -30.880;    0.000;12857.32043
 603.29;12732.000;  -30.150;    0.000;12762.15000
 603.57;12663.060;  -38.680;    0.000;12701.73957
 603.85;12537.120;  -36.240;    0.000;12573.36012
 604.12;12558.060;  -25.740;    0.000;12583.79957
 604.40;12440.980;  -37.040;    0.000;12478.02047
 604.67;12357.060;  -31.720;    0.000;12388.77957
 604.95;12264.120;  -36.850;    0.000;12300.97012
 605.22;12135.160;  -36.400;    0.000;12171.56016
 605.50;11989.780;  -42.480;    0.000;12032.26027
 605.77;12016.340;  -37.250;    0.000;12053.58984
 606.05;11824.320;  -39.640;    0.000;11863.96031
 606.33;11830.300;  -35.100;    0.000;11865.39980
 606.60;11678.420;  -44.280;    0.000;11722.69992
 606.88;11638.780;  -33.550;    0.000;11672.33027
 607.15;11594.080;  -35.810;    0.000;11629.89008
 607.43;11499.620;  -38.570;    0.000;11538.19012
 607.70;11427.400;  -33.540;    0.000;11460.94039
 607.98;11340.420;  -38.040;    0.000;11378.45992
 608.25;11232.220;  -39.360;    0.000;11271.57973
 608.53;11120.080;  -46.700;    0.000;11166.78008
 608.80;11120.220;  -39.200;    0.000;11159.41973
 609.08;11042.680;  -41.820;    0.000;11084.49969
 609.35;10960.500;  -35.520;    0.000;10996.02000
 609.63;10896.020;  -44.390;    0.000;10940.40953
 609.90;10808.300;  -36.930;    0.000;10845.22980
 610.18;10793.940;  -28.100;    0.000;10822.04043
 610.45;10712.540;  -47.230;    0.000;10759.77004
 610.73;10638.100;  -40.590;    0.000;10678.68961
 611.00;10572.960;  -28.940;    0.000;10601.89996
 611.28;10505.460;  -41.770;    0.000;10547.22996
 611.55;10378.940;  -47.150;    0.000;10426.09043
 611.83;10384.740;  -42.410;    0.000;10427.15023
 612.10;10320.900;  -47.870;    0.000;10368.77039
 612.38;10257.800;  -43.330;    0.000;10301.12981
 612.65;10230.860;  -38.760;    0.000;10269.62035
 612.93;10107.420;  -46.440;    0.000;10153.85992
 613.20;10096.520;  -40.520;    0.000;10137.03953
 613.48; 9962.120;  -42.680;    0.000;10004.80012
 613.75; 9928.120;  -49.140;    0.000;9977.26012
 614.03; 9885.660;  -35.760;    0.000;9921.42015
 614.30; 9874.020;  -49.280;    0.000;9923.29953
 614.57; 9778.680;  -47.070;    0.000;9825.74969
 614.85; 9741.300;  -40.710;    0.000;9782.00980
 615.12; 9682.580;  -40.130;    0.000;9722.71008
 615.40; 9605.880;  -45.350;    0.000;9651.22988
 615.67; 9574.680;  -41.120;    0.000;9615.79969
 615.95; 9514.200;  -42.780;    0.000;9556.98019
 616.22; 9448.000;  -39.310;    0.000;9487.31000
 616.50; 9413.420;  -36.190;    0.000;9449.60992
 616.77; 9319.360;  -39.210;    0.000;9358.57035
 617.05; 9286.640;  -40.130;    0.000;9326.76965
 617.32; 9117.280;  -41.510;    0.000;9158.79027
 617.59; 9034.220;  -39.270;    0.000;9073.48973
 617.87; 8998.860;  -46.440;    0.000;9045.30035
 618.14; 8819.020;  -39.430;    0.000;8858.44953
 618.42; 8784.580;  -48.270;    0.000;8832.85008
 618.69; 8708.700;  -42.280;    0.000;8750.98019
 618.97; 8569.280;  -50.160;    0.000;8619.44027
 619.24; 8500.900;  -46.580;    0.000;8547.48039
 619.51; 8380.100;  -37.650;    0.000;8417.74961
 619.79; 8249.920;  -40.650;    0.000;8290.56992
 620.06; 8047.340;  -36.470;    0.000;8083.80984
 620.34; 7994.040;  -42.190;    0.000;8036.23004
 620.61; 7857.600;  -36.840;    0.000;7894.44010
 620.88; 7750.580;  -52.820;    0.000;7803.40008
 621.16; 7851.320;  -38.520;    0.000;7889.83982
 621.43; 7989.860;  -40.070;    0.000;8029.92986
 621.71; 8006.260;  -40.440;    0.000;8046.69976
 621.98; 7904.480;  -42.920;    0.000;7947.39998
 622.25; 7803.880;  -42.110;    0.000;7845.98988
 622.53; 7770.160;  -43.900;    0.000;7814.06016
 622.80; 7752.040;  -48.280;    0.000;7800.32004
 623.08; 7653.060;  -48.410;    0.000;7701.47006
 623.35; 7616.460;  -42.130;    0.000;7658.58996
 623.62; 7543.720;  -41.870;    0.000;7585.59021
 623.90; 7547.620;  -44.400;    0.000;7592.02012
 624.17; 7508.440;  -45.690;    0.000;7554.12994
 624.44; 7456.440;  -37.610;    0.000;7494.04994
 624.72; 7382.140;  -46.110;    0.000;7428.25014
 624.99; 7352.380;  -46.780;    0.000;7399.15988
 625.26; 7352.940;  -48.840;    0.000;7401.77994
 625.54; 7436.760;  -34.500;    0.000;7471.25977
 625.81; 7412.100;  -39.400;    0.000;7451.50010
 626.09; 7435.600;  -42.260;    0.000;7477.86010
 626.36; 7420.400;  -45.970;    0.000;7466.36990
 626.63; 7367.800;  -41.260;    0.000;7409.05980
 626.91; 7360.780;  -45.500;    0.000;7406.27979
 627.18; 7376.680;  -36.360;    0.000;7413.04018
 627.45; 7280.680;  -44.240;    0.000;7324.92018
 627.73; 7271.760;  -37.730;    0.000;7309.48977
 628.00; 7237.540;  -50.130;    0.000;7287.67004
 628.27; 7250.540;  -40.330;    0.000;7290.87004
 628.55; 7203.880;  -44.630;    0.000;7248.50988
 628.82; 7199.280;  -48.870;    0.000;7248.14978
 629.09; 7145.520;  -49.850;    0.000;7195.37002
 629.37; 7148.340;  -48.480;    0.000;7196.81984
 629.64; 7164.500;  -48.280;    0.000;7212.78000
 629.91; 7077.560;  -45.620;    0.000;7123.18006
 630.18; 7086.360;  -51.830;    0.000;7138.18987
 630.46; 7065.720;  -36.850;    0.000;7102.57021
 630.73; 6998.340;  -39.860;    0.000;7038.19984
 631.00; 7009.300;  -47.900;    0.000;7057.19981
 631.28; 6952.160;  -49.040;    0.000;7001.20016
 631.55; 6892.220;  -43.760;    0.000;6935.98021
 631.82; 6921.260;  -44.290;    0.000;6965.54977
 632.10; 6869.580;  -39.890;    0.000;6909.47008
 632.37; 6875.500;  -43.540;    0.000;6919.04000
 632.64; 6844.100;  -40.290;    0.000;6884.39010
 632.91; 6872.520;  -40.250;    0.000;6912.77002
 633.19; 6754.880;  -41.720;    0.000;6796.59988
 633.46; 6718.300;  -51.730;    0.000;6770.02980
 633.73; 6716.620;  -38.000;    0.000;6754.62012
 634.01; 6683.000;  -45.300;    0.000;6728.30000
 634.28; 6690.460;  -41.280;    0.000;6731.73996
 634.55; 6711.660;  -41.150;    0.000;6752.81016
 634.82; 6665.940;  -47.530;    0.000;6713.46994
 635.10; 6648.080;  -39.270;    0.000;6687.35008
 635.37; 6623.380;  -47.120;    0.000;6670.49988
 635.64; 6631.840;  -54.360;    0.000;6686.19984
 635.91; 6563.880;  -48.020;    0.000;6611.89988
 636.19; 6603.040;  -44.600;    0.000;6647.64004
 636.46; 6575.100;  -48.800;    0.000;6623.90010
 636.73; 6591.520;  -39.570;    0.000;6631.09002
 637.00; 6593.140;  -42.160;    0.000;6635.30014
 637.28; 6577.020;  -50.320;    0.000;6627.34002
 637.55; 6563.400;  -43.570;    0.000;6606.96990
 637.82; 6556.340;  -46.760;    0.000;6603.09984
 638.09; 6421.420;  -39.060;    0.000;6460.47992
 638.37; 6304.460;  -46.470;    0.000;6350.92996
 638.64; 6266.440;  -47.310;    0.000;6313.74994
 638.91; 6298.080;  -41.310;    0.000;6339.39008
 639.18; 6231.460;  -43.470;    0.000;6274.92996
 639.46; 6211.500;  -48.390;    0.000;6259.89000
 639.73; 6141.780;  -39.780;    0.000;6181.55978
 640.00; 6096.260;  -45.530;    0.000;6141.78976
 640.27; 6101.800;  -46.560;    0.000;6148.35981
 640.54; 6044.980;  -51.660;    0.000;6096.63998
 640.82; 5964.340;  -48.560;    0.000;6012.89985
 641.09; 5942.960;  -48.760;    0.000;5991.71996
 641.36; 5902.400;  -46.200;    0.000;5948.59990
 641.63; 5867.120;  -55.600;    0.000;5922.72012
 641.91; 5840.680;  -46.400;    0.000;5887.08018
 642.18; 5686.880;  -52.210;    0.000;5739.08988
 642.45; 5631.340;  -52.490;    0.000;5683.82985
 642.72; 5586.980;  -53.360;    0.000;5640.33998
 642.99; 5588.700;  -36.570;    0.000;5625.27020
 643.26; 5541.220;  -47.650;    0.000;5588.87022
 643.54; 5481.880;  -40.710;    0.000;5522.58988
 643.81; 5376.340;  -55.630;    0.000;5431.96984
 644.08; 5396.800;  -47.930;    0.000;5444.72980
 644.35; 5367.400;  -48.850;    0.000;5416.24990
 644.62; 5292.220;  -49.000;    0.000;5341.22021
 644.90; 5294.760;  -43.820;    0.000;5338.57977
 645.17; 5244.640;  -51.370;    0.000;5296.01014
 645.44; 5202.320;  -47.130;    0.000;5249.44983
 645.71; 5160.780;  -49.200;    0.000;5209.97979
 645.98; 5139.100;  -46.690;    0.000;5185.79010
 646.25; 5127.980;  -46.940;    0.000;5174.91998
 646.53; 5074.300;  -50.370;    0.000;5124.66980
 646.80; 5051.920;  -42.780;    0.000;5094.69992
 647.07; 4989.020;  -59.170;    0.000;5048.19002
 647.34; 4983.140;  -47.590;    0.000;5030.73014
 647.61; 4977.080;  -45.690;    0.000;5022.77008
 647.88; 4922.920;  -38.410;    0.000;4961.32992
 648.15; 4873.460;  -51.900;    0.000;4925.35996
 648.43; 4862.940;  -52.460;    0.000;4915.39994
 648.70; 4825.840;  -50.870;    0.000;4876.70984
 648.97; 4786.300;  -44.090;    0.000;4830.38980
 649.24; 4762.100;  -46.570;    0.000;4808.67010
 649.51; 4721.460;  -56.440;    0.000;4777.89996
 649.78; 4686.540;  -48.510;    0.000;4735.05004
 650.05; 4690.420;  -44.310;    0.000;4734.72992
 650.32; 4727.940;  -21.090;    0.000;4749.02994
 650.60; 4613.120;  -47.320;    0.000;4660.44012
 650.87; 4605.700;  -50.640;    0.000;4656.34019
 651.14; 4573.560;  -54.410;    0.000;4627.97006
 651.41; 4550.480;  -54.500;    0.000;4604.97998
 651.68; 4476.180;  -50.510;    0.000;4526.69017
 651.95; 4499.680;  -48.670;    0.000;4548.35017
 652.22; 4460.900;  -53.000;    0.000;4513.89990
 652.49; 4396.380;  -58.480;    0.000;4454.85988
 652.76; 4406.300;  -53.540;    0.000;4459.83981
 653.03; 4358.580;  -48.460;    0.000;4407.04008
 653.31; 4342.760;  -50.850;    0.000;4393.60976
 653.58; 4296.220;  -50.660;    0.000;4346.88021
 653.85; 4294.620;  -53.770;    0.000;4348.39012
 654.12; 4245.700;  -52.700;    0.000;4298.40020
 654.39; 4232.660;  -49.080;    0.000;4281.74016
 654.66; 4226.340;  -44.350;    0.000;4270.68984
 654.93; 4190.080;  -40.020;    0.000;4230.10008
 655.20; 4146.900;  -51.700;    0.000;4198.59990
 655.47; 4119.180;  -52.020;    0.000;4171.20018
 655.74; 4109.580;  -46.170;    0.000;4155.75008
 656.01; 4073.400;  -53.270;    0.000;4126.66990
 656.28; 4073.900;  -53.920;    0.000;4127.81990
 656.55; 4011.460;  -44.780;    0.000;4056.23996
 656.83; 3987.900;  -54.700;    0.000;4042.59990
 657.10; 3963.260;  -54.950;    0.000;4018.21001
 657.37; 3923.140;  -45.470;    0.000;3968.60989
 657.64; 3917.600;  -50.040;    0.000;3967.64010
 657.91; 3891.900;  -54.530;    0.000;3946.42990
 658.18; 3886.060;  -48.090;    0.000;3934.15006
 658.45; 3820.580;  -53.800;    0.000;3874.38008
 658.72; 3804.740;  -49.560;    0.000;3854.29999
 658.99; 3830.260;  -52.810;    0.000;3883.07001
 659.26; 3811.660;  -44.460;    0.000;3856.11991
 659.53; 3726.820;  -53.390;    0.000;3780.21007
 659.80; 3701.320;  -50.980;    0.000;3752.30007
 660.07; 3718.600;  -41.400;    0.000;3760.00010
 660.34; 3642.680;  -52.590;    0.000;3695.26993
 660.61; 3681.100;  -54.010;    0.000;3735.11010
 660.88; 3651.700;  -49.010;    0.000;3700.70995
 661.15; 3648.380;  -45.510;    0.000;3693.88988
 661.42; 3585.840;  -52.000;    0.000;3637.84009
 661.69; 3563.120;  -51.660;    0.000;3614.78012
 661.96; 3492.220;  -53.540;    0.000;3545.75997
 662.23; 3511.060;  -54.210;    0.000;3565.27006
 662.50; 3487.800;  -55.200;    0.000;3543.00005
 662.77; 3463.720;  -57.340;    0.000;3521.05997
 663.04; 3436.360;  -55.460;    0.000;3491.82011
 663.31; 3419.180;  -53.020;    0.000;3472.19993
 663.58; 3410.340;  -53.790;    0.000;3464.13009
 663.85; 3380.740;  -48.190;    0.000;3428.92999
 664.12; 3367.640;  -49.170;    0.000;3416.80989
 664.39; 3327.080;  -57.490;    0.000;3384.57008
 664.66; 3323.160;  -56.420;    0.000;3379.57991
 664.93; 3245.860;  -57.810;    0.000;3303.67011
 665.20; 3280.080;  -45.510;    0.000;3325.59008
 665.47; 3235.940;  -47.500;    0.000;3283.43994
 665.74; 3199.220;  -56.240;    0.000;3255.45997
 666.01; 3224.600;  -52.970;    0.000;3277.57010
 666.28; 3136.620;  -53.610;    0.000;3190.23012
 666.55; 3149.360;  -48.340;    0.000;3197.70011
 666.82; 3097.620;  -58.560;    0.000;3156.18012
 667.09; 3114.200;  -54.770;    0.000;3168.96995
 667.36; 3065.380;  -51.960;    0.000;3117.33988
 667.63; 3073.880;  -48.120;    0.000;3121.99988
 667.90; 3044.240;  -50.500;    0.000;3094.73999
 668.16; 3023.200;  -51.760;    0.000;3074.95995
 668.43; 2987.360;  -52.290;    0.000;3039.65011
 668.70; 2983.640;  -50.190;    0.000;3033.82989
 668.97; 2946.060;  -54.900;    0.000;3000.96006
 669.24; 2966.360;  -50.670;    0.000;3017.03011
 669.51; 2926.740;  -47.280;    0.000;2974.01999
 669.78; 2913.680;  -57.020;    0.000;2970.69993
 670.05; 2872.460;  -53.780;    0.000;2926.23996
 670.32; 2852.880;  -47.630;    0.000;2900.50988
 670.59; 2820.020;  -59.380;    0.000;2879.40002
 670.86; 2798.000;  -54.490;    0.000;2852.49000
 671.13; 2774.760;  -53.370;    0.000;2828.13001
 671.40; 2773.040;  -52.030;    0.000;2825.07004
 671.67; 2747.640;  -50.040;    0.000;2797.67989
 671.93; 2740.540;  -55.350;    0.000;2795.89004
 672.20; 2700.000;  -58.000;    0.000;2758.00000
 672.47; 2685.000;  -49.890;    0.000;2734.89000
 672.74; 2694.860;  -48.940;    0.000;2743.80011
 673.01; 2634.040;  -62.990;    0.000;2697.03004
 673.28; 2632.580;  -53.910;    0.000;2686.49008
 673.55; 2605.440;  -54.610;    0.000;2660.04994
 673.82; 2592.360;  -51.100;    0.000;2643.46011
 674.09; 2586.000;  -52.250;    0.000;2638.25000
 674.35; 2525.280;  -58.740;    0.000;2584.02003
 674.62; 2526.780;  -44.900;    0.000;2571.68003
 674.89; 2494.460;  -53.110;    0.000;2547.56996
 675.16; 2478.900;  -47.910;    0.000;2526.80990
 675.43; 2491.300;  -52.020;    0.000;2543.32005
 675.70; 2485.560;  -36.370;    0.000;2521.93006
 675.97; 2454.900;  -55.340;    0.000;2510.23990
 676.24; 2444.840;  -47.960;    0.000;2492.80009
 676.50; 2395.020;  -59.330;    0.000;2454.35002
 676.77; 2404.720;  -60.020;    0.000;2464.73997
 677.04; 2360.480;  -47.110;    0.000;2407.58998
 677.31; 2339.920;  -55.920;    0.000;2395.83992
 677.58; 2329.920;  -52.120;    0.000;2382.03992
 677.85; 2335.920;  -48.990;    0.000;2384.90992
 678.12; 2303.680;  -52.160;    0.000;2355.83993
 678.38; 2280.620;  -54.140;    0.000;2334.76012
 678.65; 2263.680;  -60.680;    0.000;2324.35993
 678.92; 2228.940;  -53.340;    0.000;2282.27994
 679.19; 2278.860;  -39.870;    0.000;2318.73011
 679.46; 2222.360;  -46.760;    0.000;2269.12011
 679.73; 2213.360;  -59.180;    0.000;2272.54011
 679.99; 2182.880;  -56.270;    0.000;2239.14988
 680.26; 2154.040;  -54.520;    0.000;2208.56004
 680.53; 2157.200;  -59.650;    0.000;2216.84995
 680.80; 2135.220;  -56.750;    0.000;2191.96997
 681.07; 2110.120;  -55.340;    0.000;2165.46012
 681.33; 2123.440;  -54.670;    0.000;2178.10994
 681.60; 2094.400;  -52.230;    0.000;2146.62990
 681.87; 2077.200;  -54.620;    0.000;2131.81995
 682.14; 2051.000;  -52.270;    0.000;2103.27000
 682.41; 2028.620;  -57.990;    0.000;2086.61000
 682.67; 2027.640;  -50.450;    0.000;2078.09002
 682.94; 1993.120;  -59.360;    0.000;2052.48000
 683.21; 2001.200;  -53.700;    0.000;2054.89995
 683.48; 1997.400;  -55.450;    0.000;2052.85003
 683.75; 1996.340;  -47.950;    0.000;2044.28997
 684.01; 1978.280;  -46.370;    0.000;2024.65003
 684.28; 1933.880;  -57.410;    0.000;1991.29000
 684.55; 1914.960;  -54.400;    0.000;1969.35996
 684.82; 1912.840;  -62.610;    0.000;1975.44997
 685.09; 1922.640;  -45.320;    0.000;1967.96001
 685.35; 1883.060;  -50.950;    0.000;1934.01006
 685.62; 1868.580;  -53.810;    0.000;1922.38996
 685.89; 1882.480;  -50.790;    0.000;1933.26998
 686.16; 1835.560;  -60.890;    0.000;1896.45006
 686.42; 1812.540;  -53.860;    0.000;1866.40004
 686.69; 1817.620;  -49.770;    0.000;1867.39000
 686.96; 1760.740;  -58.350;    0.000;1819.08999
 687.23; 1794.680;  -53.370;    0.000;1848.05005
 687.49; 1788.200;  -46.350;    0.000;1834.54995
 687.76; 1731.880;  -56.190;    0.000;1788.07000
 688.03; 1758.780;  -57.270;    0.000;1816.05003
 688.30; 1712.020;  -63.910;    0.000;1775.93002
 688.56; 1716.740;  -49.760;    0.000;1766.49999
 688.83; 1688.760;  -58.260;    0.000;1747.02001
 689.10; 1689.080;  -59.880;    0.000;1748.95996
 689.37; 1662.400;  -60.250;    0.000;1722.65002
 689.63; 1656.800;  -58.120;    0.000;1714.92005
 689.90; 1648.320;  -42.960;    0.000;1691.27995
 690.17; 1636.620;  -57.170;    0.000;1693.78999
 690.44; 1621.500;  -53.100;    0.000;1674.60000
 690.70; 1605.460;  -64.370;    0.000;1669.82996
 690.97; 1599.680;  -52.060;    0.000;1651.74006
 691.24; 1588.960;  -45.640;    0.000;1634.59996
 691.50; 1565.900;  -63.810;    0.000;1629.71003
 691.77; 1554.700;  -61.380;    0.000;1616.07995
 692.04; 1524.340;  -50.390;    0.000;1574.72997
 692.30; 1519.460;  -61.100;    0.000;1580.55996
 692.57; 1525.340;  -55.730;    0.000;1581.06997
 692.84; 1473.960;  -60.990;    0.000;1534.94996
 693.11; 1478.540;  -51.860;    0.000;1530.40004
 693.37; 1488.080;  -50.850;    0.000;1538.92995
 693.64; 1430.620;  -63.550;    0.000;1494.16999
 693.91; 1436.520;  -52.450;    0.000;1488.97002
 694.17; 1431.460;  -52.150;    0.000;1483.60996
 694.44; 1403.360;  -55.600;    0.000;1458.95998
 694.71; 1394.540;  -66.220;    0.000;1460.76004
 694.97; 1371.680;  -60.180;    0.000;1431.86005
 695.24; 1357.660;  -60.420;    0.000;1418.08003
 695.51; 1363.100;  -64.250;    0.000;1427.34998
 695.77; 1354.840;  -53.070;    0.000;1407.90997
 696.04; 1344.080;  -57.450;    0.000;1401.52996
 696.31; 1319.620;  -55.850;    0.000;1375.46999
 696.57; 1345.280;  -48.360;    0.000;1393.64003
 696.84; 1281.460;  -56.540;    0.000;1337.99996
 697.11; 1270.880;  -49.450;    0.000;1320.33001
 697.37; 1289.080;  -52.390;    0.000;1341.46996
 697.64; 1258.280;  -50.550;    0.000;1308.83003
 697.91; 1228.660;  -63.040;    0.000;1291.70004
 698.17; 1216.140;  -58.460;    0.000;1274.60001
 698.44; 1220.760;  -54.420;    0.000;1275.18001
 698.71; 1198.280;  -60.630;    0.000;1258.91003
 698.97; 1202.680;  -56.130;    0.000;1258.81005
 699.24; 1168.000;  -57.190;    0.000;1225.19000
 699.50; 1146.780;  -63.610;    0.000;1210.39003
 699.77; 1151.800;  -63.480;    0.000;1215.28005
 700.04; 1120.340;  -56.390;    0.000;1176.72997
 700.30; 1115.440;  -57.580;    0.000;1173.01994
 700.57; 1095.660;  -57.160;    0.000;1152.82003
 700.84; 1098.960;  -52.700;    0.000;1151.65996
 701.10; 1062.740;  -55.650;    0.000;1118.38999
 701.37; 1054.220;  -57.060;    0.000;1111.27997
 701.63; 1040.240;  -60.840;    0.000;1101.07999
 701.90; 1037.360;  -55.460;    0.000;1092.81998
 702.17; 1032.480;  -46.530;    0.000;1079.00998
 702.43; 1006.660;  -56.900;    0.000;1063.55997
 702.70;  999.340;  -43.080;    0.000;1042.42003
 702.96;  981.920;  -57.550;    0.000;1039.46998
 703.23;  953.240;  -63.900;    0.000;1017.13999
 703.50;  930.440;  -57.740;    0.000;988.18000
 703.76;  937.220;  -60.140;    0.000;997.35997
 704.03;  929.720;  -62.000;    0.000;991.71997
 704.29;  892.880;  -56.620;    0.000;949.50000
 704.56;  891.520;  -66.340;    0.000;957.86002
 704.82;  887.140;  -61.140;    0.000;948.28001
 705.09;  878.100;  -50.240;    0.000;928.33998
 705.36;  843.300;  -63.730;    0.000;907.02999
 705.62;  866.020;  -45.100;    0.000;911.12002
 705.89;  830.100;  -57.710;    0.000;887.80997
 706.15;  818.360;  -52.660;    0.000;871.01999
 706.42;  793.420;  -49.750;    0.000;843.16998
 706.68;  783.600;  -59.540;    0.000;843.13998
 706.95;  793.900;  -55.380;    0.000;849.28003
 707.21;  748.820;  -63.590;    0.000;812.41001
 707.48;  754.520;  -61.770;    0.000;816.29002
 707.75;  739.040;  -54.600;    0.000;793.63998
 708.01;  728.300;  -64.580;    0.000;792.87999
 708.28;  711.920;  -55.470;    0.000;767.38998
 708.54;  686.460;  -64.490;    0.000;750.95002
 708.81;  711.180;  -52.630;    0.000;763.80999
 709.07;  679.860;  -58.430;    0.000;738.28999
 709.34;  661.520;  -63.150;    0.000;724.67002
 709.60;  647.980;  -59.760;    0.000;707.73998
 709.87;  676.060;  -51.730;    0.000;727.79000
 710.13;  643.960;  -58.250;    0.000;702.21002
 710.40;  613.600;  -67.870;    0.000;681.46998
 710.66;  619.740;  -58.170;    0.000;677.90999
 710.93;  624.200;  -58.390;    0.000;682.59001
 711.19;  593.220;  -60.660;    0.000;653.87997
 711.46;  628.900;  -53.110;    0.000;682.01003
 711.72;  599.240;  -53.100;    0.000;652.33999
 711.99;  595.640;  -64.700;    0.000;660.34001
 712.25;  587.000;  -54.480;    0.000;641.48000
 712.52;  601.120;  -51.400;    0.000;652.52000
 712.78;  571.260;  -54.830;    0.000;626.09001
 713.05;  532.740;  -61.310;    0.000;594.04999
 713.31;  547.480;  -54.880;    0.000;602.35998
 713.58;  539.800;  -56.790;    0.000;596.58999
 713.84;  543.320;  -53.100;    0.000;596.42001
 714.11;  518.100;  -62.430;    0.000;580.52998
 714.37;  533.780;  -52.180;    0.000;585.96003
 714.64;  503.260;  -54.400;    0.000;557.66001
 714.90;  508.980;  -53.310;    0.000;562.29001
 715.17;  509.480;  -57.550;    0.000;567.03001
 715.43;  480.440;  -50.260;    0.000;530.70000
 715.70;  500.100;  -55.710;    0.000;555.81001
 715.96;  497.560;  -54.690;    0.000;552.25000
 716.22;  478.320;  -61.380;    0.000;539.70001
 716.49;  476.280;  -58.790;    0.000;535.07000
 716.75;  476.500;  -62.550;    0.000;539.05000
 717.02;  482.540;  -58.140;    0.000;540.68001
 717.28;  476.660;  -63.690;    0.000;540.35000
 717.55;  454.960;  -62.720;    0.000;517.67999
 717.81;  468.360;  -56.110;    0.000;524.46999
 718.08;  469.820;  -58.860;    0.000;528.68001
 718.34;  443.380;  -65.190;    0.000;508.57001
 718.60;  452.620;  -51.960;    0.000;504.57999
 718.87;  451.200;  -58.480;    0.000;509.68001
 719.13;  457.520;  -63.390;    0.000;520.90999
 719.40;  447.720;  -57.650;    0.000;505.37000
 719.66;  439.780;  -60.260;    0.000;500.04000
 719.93;  454.760;  -56.900;    0.000;511.66001
 720.19;  438.980;  -67.380;    0.000;506.36001
 720.45;  435.840;  -62.750;    0.000;498.59000
 720.72;  430.960;  -57.950;    0.000;488.90999
 720.98;  455.480;  -55.200;    0.000;510.68001
 721.25;  430.660;  -64.310;    0.000;494.97000
 721.51;  426.220;  -68.290;    0.000;494.51000
 721.77;  430.760;  -60.350;    0.000;491.11001
 722.04;  452.540;  -45.030;    0.000;497.57001
 722.30;  446.380;  -55.770;    0.000;502.15001
 722.57;  440.560;  -60.430;    0.000;500.99000
 722.83;  443.580;  -62.410;    0.000;505.98999
 723.09;  415.360;  -64.170;    0.000;479.52998
 723.36;  421.820;  -64.180;    0.000;486.00001
 723.62;  438.440;  -58.620;    0.000;497.06000
 723.88;  437.560;  -56.860;    0.000;494.42000
 724.15;  434.720;  -56.520;    0.000;491.24000
 724.41;  428.020;  -63.620;    0.000;491.63999
 724.68;  422.880;  -62.790;    0.000;485.67001
 724.94;  425.340;  -49.670;    0.000;475.00999
 725.20;  414.400;  -59.760;    0.000;474.15999
 725.47;  417.300;  -61.790;    0.000;479.08999
 725.73;  414.700;  -57.560;    0.000;472.26001
 725.99;  405.820;  -62.280;    0.000;468.10001
 726.26;  422.400;  -48.740;    0.000;471.14000
 726.52;  420.600;  -52.300;    0.000;472.90001
 726.78;  406.080;  -64.050;    0.000;470.12999
 727.05;  412.060;  -58.610;    0.000;470.67000
 727.31;  406.760;  -65.490;    0.000;472.25001
 727.57;  394.920;  -61.120;    0.000;456.04001
 727.84;  410.060;  -54.090;    0.000;464.15000
 728.10;  397.440;  -57.090;    0.000;454.53000
 728.36;  404.420;  -62.130;    0.000;466.55001
 728.63;  404.840;  -64.770;    0.000;469.60999
 728.89;  381.760;  -68.210;    0.000;449.97001
 729.15;  376.380;  -60.940;    0.000;437.32000
 729.42;  371.760;  -64.380;    0.000;436.14001
 729.68;  391.080;  -59.120;    0.000;450.19999
 729.94;  376.360;  -61.710;    0.000;438.06998
 730.21;  396.940;  -63.750;    0.000;460.69000
 730.47;  385.220;  -65.420;    0.000;450.64000
 730.73;  373.980;  -62.120;    0.000;436.10001
 731.00;  367.120;  -57.710;    0.000;424.82999
 731.26;  370.340;  -55.830;    0.000;426.17000
 731.52;  372.620;  -65.480;    0.000;438.10000
 731.78;  357.300;  -64.150;    0.000;421.44999
 732.05;  361.600;  -63.760;    0.000;425.36000
 732.31;  361.900;  -66.150;    0.000;428.05000
 732.57;  361.120;  -62.040;    0.000;423.16000
 732.84;  351.060;  -65.060;    0.000;416.12000
 733.10;  348.620;  -61.680;    0.000;410.30000
 733.36;  336.800;  -65.560;    0.000;402.35999
 733.62;  348.100;  -68.590;    0.000;416.69000
 733.89;  353.080;  -60.690;    0.000;413.76999
 734.15;  346.240;  -62.020;    0.000;408.25999
 734.41;  348.980;  -59.170;    0.000;408.15001
 734.67;  351.380;  -65.610;    0.000;416.99001
 734.94;  343.280;  -64.100;    0.000;407.38000
 735.20;  323.060;  -64.260;    0.000;387.32000
 735.46;  331.840;  -61.760;    0.000;393.59999
 735.73;  343.640;  -62.280;    0.000;405.92001
 735.99;  322.300;  -63.580;    0.000;385.87999
 736.25;  327.600;  -65.330;    0.000;392.93001
 736.51;  312.940;  -64.780;    0.000;377.72000
 736.77;  321.760;  -59.870;    0.000;381.63001
 737.04;  322.200;  -62.400;    0.000;384.60001
 737.30;  296.620;  -60.030;    0.000;356.64999
 737.56;  324.060;  -57.690;    0.000;381.75000
 737.82;  315.040;  -62.400;    0.000;377.44001
 738.09;  293.680;  -61.080;    0.000;354.75999
 738.35;  287.800;  -65.060;    0.000;352.85999
 738.61;  299.180;  -60.770;    0.000;359.94999
 738.87;  305.340;  -61.660;    0.000;367.00000
 739.14;  288.960;  -59.450;    0.000;348.40999
 739.40;  288.780;  -66.620;    0.000;355.40000
 739.66;  284.140;  -65.480;    0.000;349.62002
 739.92;  278.380;  -64.110;    0.000;342.49001
 740.18;  289.600;  -58.910;    0.000;348.51001
 740.45;  277.000;  -66.570;    0.000;343.57000
 740.71;  268.000;  -64.190;    0.000;332.19000
 740.97;  285.620;  -61.620;    0.000;347.23999
 741.23;  270.420;  -64.440;    0.000;334.86002
 741.49;  266.540;  -61.870;    0.000;328.41001
 741.76;  258.640;  -69.670;    0.000;328.31001
 742.02;  262.860;  -70.580;    0.000;333.43999
 742.28;  254.940;  -67.810;    0.000;322.75000
 742.54;  256.960;  -67.320;    0.000;324.27999
 742.80;  266.240;  -66.940;    0.000;333.17999
 743.06;  258.220;  -60.220;    0.000;318.44000
 743.33;  259.780;  -60.250;    0.000;320.03000
 743.59;  243.380;  -71.210;    0.000;314.59000
 743.85;  239.500;  -63.280;    0.000;302.78000
 744.11;  248.920;  -65.520;    0.000;314.43999
 744.37;  249.100;  -63.300;    0.000;312.40001
 744.63;  235.320;  -62.430;    0.000;297.75001
 744.90;  231.800;  -61.300;    0.000;293.10000
 745.16;  223.620;  -61.400;    0.000;285.02000
 745.42;  227.280;  -69.410;    0.000;296.69000
 745.68;  230.880;  -62.770;    0.000;293.65001
 745.94;  245.460;  -54.740;    0.000;300.20001
 746.20;  221.600;  -62.940;    0.000;284.54000
 746.46;  230.860;  -58.490;    0.000;289.35000
 746.72;  220.640;  -60.020;    0.000;280.66000
 746.99;  213.780;  -59.340;    0.000;273.12000
 747.25;  237.200;  -54.110;    0.000;291.31000
 747.51;  208.620;  -63.240;    0.000;271.86000
 747.77;  210.780;  -66.010;    0.000;276.79000
 748.03;  193.600;  -65.590;    0.000;259.19000
 748.29;  218.780;  -63.300;    0.000;282.08000
 748.55;  195.420;  -63.610;    0.000;259.03000
 748.81;  180.500;  -65.400;    0.000;245.90000
 749.08;  202.700;  -61.140;    0.000;263.84000
 749.34;  200.960;  -61.020;    0.000;261.98001
 749.60;  200.920;  -61.090;    0.000;262.01000
 749.86;  187.440;  -62.460;    0.000;249.90000
 750.12;  170.800;  -58.080;    0.000;228.88000
 750.38;  187.600;  -66.740;    0.000;254.34000
 750.64;  184.480;  -64.990;    0.000;249.46999
 750.90;  184.340;  -61.010;    0.000;245.34999
 751.16;  171.520;  -66.030;    0.000;237.55000
 751.42;  174.780;  -63.820;    0.000;238.60000
 751.68;  177.160;  -57.490;    0.000;234.65001
 751.95;  162.820;  -66.360;    0.000;229.18001
 752.21;  169.340;  -68.570;    0.000;237.91000
 752.47;  150.200;  -59.310;    0.000;209.51000
 752.73;  160.820;  -72.150;    0.000;232.97001
 752.99;  143.760;  -62.330;    0.000;206.09000
 753.25;  156.020;  -68.210;    0.000;224.23000
 753.51;  150.900;  -66.540;    0.000;217.43999
 753.77;  143.600;  -65.250;    0.000;208.85001
 754.03;  150.740;  -63.310;    0.000;214.05001
 754.29;  149.040;  -69.830;    0.000;218.87000
 754.55;  138.360;  -73.220;    0.000;211.58000
 754.81;  134.160;  -65.730;    0.000;199.89001
 755.07;  142.840;  -60.480;    0.000;203.32000
 755.33;  131.460;  -68.640;    0.000;200.10001
 755.59;  124.840;  -69.750;    0.000;194.59000
 755.85;  124.880;  -61.550;    0.000;186.43000
 756.11;  123.060;  -66.180;    0.000;189.24000
 756.37;  120.560;  -68.200;    0.000;188.75999
 756.63;  146.000;  -52.880;    0.000;198.88000
 756.89;  128.040;  -77.540;    0.000;205.57999
 757.15;  125.960;  -67.220;    0.000;193.18000
 757.41;  145.620;  -51.850;    0.000;197.46999
 757.68;  104.400;  -69.940;    0.000;174.34000
 757.94;  123.360;  -61.100;    0.000;184.46000
 758.20;  123.020;  -60.850;    0.000;183.87000
 758.46;  110.360;  -65.120;    0.000;175.48000
 758.72;  115.760;  -70.550;    0.000;186.31001
 758.98;  123.300;  -58.450;    0.000;181.75000
 759.24;  110.220;  -62.840;    0.000;173.06000
 759.50;  107.960;  -60.370;    0.000;168.33000
 759.76;  129.460;  -58.150;    0.000;187.61001
 760.02;  109.340;  -64.840;    0.000;174.17999
 760.27;   98.420;  -64.360;    0.000;162.78000
 760.53;  108.500;  -61.770;    0.000;170.27000
 760.79;  112.420;  -58.420;    0.000;170.84000
 761.05;  110.860;  -59.730;    0.000;170.59000
 761.31;  109.540;  -68.970;    0.000;178.51000
 761.57;  103.000;  -64.760;    0.000;167.76000
 761.83;  101.780;  -63.850;    0.000;165.63000
 762.09;   84.200;  -60.800;    0.000;145.00000
 762.35;   83.500;  -73.160;    0.000;156.66000
 762.61;   93.580;  -65.790;    0.000;159.37000
 762.87;   93.900;  -64.790;    0.000;158.69000
 763.13;   66.980;  -65.200;    0.000;132.18000
 763.39;  114.700;  -58.510;    0.000;173.21000
 763.65;   72.360;  -65.790;    0.000;138.15000
 763.91;   82.020;  -68.850;    0.000;150.87000
 764.17;   86.000;  -61.550;    0.000;147.55000
 764.43;   82.660;  -65.120;    0.000;147.78001
 764.69;   73.600;  -67.690;    0.000;141.29000
 764.95;   84.960;  -65.290;    0.000;150.25000
 765.21;   74.080;  -64.710;    0.000;138.79000
 765.47;   68.420;  -60.070;    0.000;128.49000
 765.73;   77.160;  -63.090;    0.000;140.25000
 765.98;   84.600;  -62.060;    0.000;146.66000
 766.24;   58.800;  -71.710;    0.000;130.51000
 766.50;   58.700;  -70.390;    0.000;129.09000
 766.76;   78.320;  -59.140;    0.000;137.46000
 767.02;   74.780;  -67.650;    0.000;142.43000
 767.28;   73.420;  -62.770;    0.000;136.19000
 767.54;   59.460;  -65.130;    0.000;124.59000
 767.80;   58.700;  -67.980;    0.000;126.68000
 768.06;   81.680;  -57.150;    0.000;138.83000
 768.32;   73.640;  -55.090;    0.000;128.73000
 768.58;   62.320;  -72.460;    0.000;134.78000
 768.83;   49.920;  -67.770;    0.000;117.68999
 769.09;   62.020;  -63.610;    0.000;125.63000
 769.35;   63.500;  -63.310;    0.000;126.81000
 769.61;   53.060;  -65.500;    0.000;118.56000
 769.87;   46.300;  -60.230;    0.000;106.53000
 770.13;   70.000;  -65.920;    0.000;135.92000
 770.39;   25.700;  -67.330;    0.000;93.03000
 770.65;   58.980;  -65.630;    0.000;124.61000
 770.90;   46.860;  -71.040;    0.000;117.90000
 771.16;   43.560;  -65.650;    0.000;109.21000
 771.42;   57.920;  -60.610;    0.000;118.53000
 771.68;   52.580;  -72.120;    0.000;124.70000
 771.94;   51.900;  -64.270;    0.000;116.17000
 772.20;   52.480;  -71.570;    0.000;124.05000
 772.46;   40.560;  -70.450;    0.000;111.01000
 772.71;   45.080;  -62.790;    0.000;107.87000
 772.97;   57.840;  -61.450;    0.000;119.29000
 773.23;   41.400;  -66.880;    0.000;108.28000
 773.49;   59.000;  -61.900;    0.000;120.90000
 773.75;   37.000;  -66.690;    0.000;103.69000
 774.01;   37.340;  -66.730;    0.000;104.07000
 774.26;   40.680;  -70.110;    0.000;110.79000
 774.52;   48.840;  -57.630;    0.000;106.47000
 774.78;   33.640;  -67.870;    0.000;101.51000
 775.04;   60.620;  -57.380;    0.000;118.00000
 775.30;   35.080;  -70.620;    0.000;105.70000
 775.56;   30.880;  -62.130;    0.000;93.01000
 775.81;   34.640;  -62.360;    0.000;97.00000
 776.07;   11.200;  -63.320;    0.000;74.52000
 776.33;   43.860;  -66.810;    0.000;110.67000
 776.59;   32.140;  -72.310;    0.000;104.45000
 776.85;   26.800;  -72.330;    0.000;99.13000
 777.10;   37.580;  -66.910;    0.000;104.49001
 777.36;   24.220;  -70.350;    0.000;94.57000
 777.62;   31.020;  -66.270;    0.000;97.29000
 777.88;   18.900;  -66.450;    0.000;85.35000
 778.14;   28.180;  -67.860;    0.000;96.04000
 778.39;   27.160;  -69.450;    0.000;96.61000
 778.65;   26.480;  -66.470;    0.000;92.95000
 778.91;    7.460;  -72.700;    0.000;80.16000
 779.17;   28.520;  -59.560;    0.000;88.08000
 779.42;   28.860;  -73.390;    0.000;102.25000
 779.68;   10.860;  -69.660;    0.000;80.52000
 779.94;   21.580;  -68.700;    0.000;90.28000
 780.20;   28.120;  -73.010;    0.000;101.13000
 780.46;    7.320;  -73.730;    0.000;81.05000
 780.71;   29.380;  -65.500;    0.000;94.88000
 780.97;   18.700;  -67.720;    0.000;86.42000
 781.23;    8.680;  -68.470;    0.000;77.15000
 781.49;   22.560;  -65.070;    0.000;87.63000
 781.74;   20.920;  -62.670;    0.000;83.59000
 782.00;    4.560;  -71.050;    0.000;75.61000
 782.26;   16.460;  -61.940;    0.000;78.40000
 782.52;    9.220;  -67.400;    0.000;76.62000
 782.77;   21.960;  -63.130;    0.000;85.09000
 783.03;    0.260;  -72.070;    0.000;72.33000
 783.29;    5.380;  -67.470;    0.000;72.85000
 783.54;    8.820;  -69.510;    0.000;78.33000
 783.80;   25.000;  -61.520;    0.000;86.52000
 784.06;   10.560;  -72.390;    0.000;82.95000
 784.32;    9.740;  -69.850;    0.000;79.59000
 784.57;   35.380;  -57.390;    0.000;92.77000
 784.83;   -5.800;  -75.500;    0.000;69.70000
 785.09;  -10.640;  -75.670;    0.000;65.03000
 785.34;   -5.880;  -67.830;    0.000;61.95000
 785.60;   19.040;  -68.990;    0.000;88.03000
 785.86;    9.260;  -65.770;    0.000;75.03000
 786.12;   11.520;  -64.000;    0.000;75.52000
 786.37;   23.360;  -58.590;    0.000;81.95000
 786.63;   -5.080;  -70.160;    0.000;65.08000
 786.89;    8.880;  -64.130;    0.000;73.01000
 787.14;   10.760;  -68.600;    0.000;79.36000
 787.40;   -5.540;  -65.120;    0.000;59.58000
 787.66;   13.060;  -69.570;    0.000;82.63000
 787.91;   28.540;  -54.980;    0.000;83.52000
 788.17;   -4.360;  -74.240;    0.000;69.88000
 788.43;  -10.280;  -65.670;    0.000;55.39000
 788.68;  -12.540;  -66.800;    0.000;54.26000
 788.94;    2.880;  -64.460;    0.000;67.34000
 789.20;   -0.240;  -67.690;    0.000;67.45000
 789.45;   -3.300;  -75.860;    0.000;72.56000
 789.71;   -0.560;  -77.270;    0.000;76.71000
 789.97;    6.720;  -62.650;    0.000;69.37000
 790.22;   -3.400;  -70.660;    0.000;67.26000
 790.48;   -6.040;  -66.280;    0.000;60.24000
 790.74;   -5.080;  -69.070;    0.000;63.99000
 790.99;   -2.780;  -67.310;    0.000;64.53000
 791.25;   -6.220;  -72.320;    0.000;66.10000
 791.51;  -12.500;  -69.110;    0.000;56.61000
 791.76;    7.420;  -60.800;    0.000;68.22000
 792.02;  -11.640;  -69.930;    0.000;58.29000
 792.27;   -1.360;  -63.120;    0.000;61.76000
 792.53;   -1.840;  -67.640;    0.000;65.80000
 792.79;   -2.940;  -74.900;    0.000;71.96000
 793.04;  -11.140;  -66.410;    0.000;55.27000
 793.30;  -16.920;  -72.290;    0.000;55.37000
 793.56;   -6.460;  -64.850;    0.000;58.39000
 793.81;   -5.320;  -64.930;    0.000;59.61000
 794.07;  -22.900;  -78.310;    0.000;55.41000
 794.32;   -0.740;  -65.850;    0.000;65.11000
 794.58;  -15.560;  -64.290;    0.000;48.73000
 794.84;  -12.580;  -73.370;    0.000;60.79000
 795.09;  -11.440;  -63.290;    0.000;51.85000
 795.35;    3.660;  -68.300;    0.000;71.96000
 795.60;  -15.320;  -67.650;    0.000;52.33000
 795.86;  -10.120;  -68.830;    0.000;58.71000
 796.12;  -18.680;  -75.900;    0.000;57.22000
 796.37;  -15.940;  -66.550;    0.000;50.61000
 796.63;  -13.660;  -68.700;    0.000;55.04000
 796.88;  -19.400;  -72.950;    0.000;53.55000
 797.14;  -14.060;  -65.230;    0.000;51.17000
 797.39;   -9.780;  -61.460;    0.000;51.68000
 797.65;  -22.780;  -68.500;    0.000;45.72000
 797.91;  -26.400;  -79.560;    0.000;53.16000
 798.16;  -25.740;  -69.310;    0.000;43.57000
 798.42;  -18.560;  -73.060;    0.000;54.50000
 798.67;  -26.020;  -75.160;    0.000;49.14000
 798.93;  -24.180;  -72.820;    0.000;48.64000
 799.18;  -33.280;  -69.660;    0.000;36.38000
 799.44;  -28.640;  -74.410;    0.000;45.77000
 799.69;  -17.820;  -72.570;    0.000;54.75000
 799.95;  -23.780;  -76.750;    0.000;52.97000
 800.21;  -34.400;  -71.490;    0.000;37.09000
 800.46;    1.860;  -60.670;    0.000;62.53000
 800.72;  -29.740;  -74.550;    0.000;44.81000
 800.97;  -29.960;  -66.080;    0.000;36.12000
 801.23;  -29.580;  -69.050;    0.000;39.47000
 801.48;  -42.900;  -80.230;    0.000;37.33000
 801.74;  -29.900;  -70.650;    0.000;40.75000
 801.99;  -13.400;  -69.570;    0.000;56.17000
 802.25;  -17.940;  -68.120;    0.000;50.18000
 802.50;  -26.220;  -69.760;    0.000;43.54000
 802.76;  -10.480;  -68.390;    0.000;57.91000
 803.01;  -23.900;  -73.710;    0.000;49.81000
 803.27;  -34.420;  -68.660;    0.000;34.24001
 803.52;  -13.320;  -67.380;    0.000;54.06000
 803.78;  -20.360;  -65.800;    0.000;45.44000
 804.03;  -20.120;  -64.730;    0.000;44.61000
 804.29;  -38.620;  -73.690;    0.000;35.07000
 804.54;  -23.060;  -72.140;    0.000;49.08000
 804.80;  -21.600;  -70.710;    0.000;49.11000
 805.05;  -33.840;  -78.700;    0.000;44.86000
 805.31;  -16.480;  -64.860;    0.000;48.38000
 805.56;   -9.520;  -61.820;    0.000;52.30000
 805.82;  -41.680;  -75.510;    0.000;33.83000
 806.07;  -16.300;  -71.590;    0.000;55.29000
 806.33;  -38.440;  -63.430;    0.000;24.99000
 806.58;  -32.140;  -76.420;    0.000;44.28000
 806.84;  -28.080;  -67.110;    0.000;39.03000
 807.09;  -23.340;  -70.810;    0.000;47.47000
 807.34;  -29.740;  -71.760;    0.000;42.02000
 807.60;  -18.400;  -72.510;    0.000;54.11000
 807.85;  -29.000;  -66.100;    0.000;37.10000
 808.11;  -36.860;  -65.900;    0.000;29.04000
 808.36;  -11.720;  -56.490;    0.000;44.77000
 808.62;  -26.100;  -69.320;    0.000;43.22000
 808.87;  -37.520;  -69.730;    0.000;32.21000
 809.13;  -42.180;  -72.860;    0.000;30.68000
 809.38;  -14.820;  -63.580;    0.000;48.76000
 809.63;  -41.640;  -74.820;    0.000;33.18000
 809.89;  -22.420;  -65.740;    0.000;43.32000
 810.14;  -28.640;  -75.130;    0.000;46.49000
 810.40;  -22.280;  -66.270;    0.000;43.99000
 810.65;  -33.920;  -71.440;    0.000;37.52000
 810.91;  -32.820;  -76.930;    0.000;44.11000
 811.16;  -28.060;  -65.800;    0.000;37.74000
 811.41;  -28.960;  -58.080;    0.000;29.12000
 811.67;  -30.680;  -71.200;    0.000;40.52000
 811.92;  -21.440;  -67.900;    0.000;46.46000
 812.18;  -27.680;  -70.620;    0.000;42.94000
 812.43;  -38.500;  -69.170;    0.000;30.67000
 812.68;  -30.720;  -72.250;    0.000;41.53000
 812.94;  -41.200;  -70.010;    0.000;28.81000
 813.19;  -36.500;  -73.690;    0.000;37.19000
 813.45;    9.740;  -54.460;    0.000;64.20000
 813.70;  -29.340;  -73.310;    0.000;43.97000
 813.95;  -27.480;  -69.970;    0.000;42.49000
 814.21;  -37.120;  -72.990;    0.000;35.87000
 814.46;  -40.780;  -66.200;    0.000;25.42000
 814.71;  -48.520;  -77.220;    0.000;28.70000
 814.97;  -41.360;  -71.610;    0.000;30.25000
 815.22;  -38.780;  -73.660;    0.000;34.88000
 815.48;  -35.160;  -74.930;    0.000;39.77000
 815.73;  -28.440;  -70.320;    0.000;41.88000
 815.98;  -31.480;  -72.260;    0.000;40.78000
 816.24;  -46.600;  -73.690;    0.000;27.09000
 816.49;  -23.740;  -67.570;    0.000;43.83000
 816.74;  -36.800;  -66.060;    0.000;29.26000
 817.00;   -6.680;  -65.110;    0.000;58.43000
 817.25;  -41.040;  -64.360;    0.000;23.32000
 817.50;  -51.740;  -71.190;    0.000;19.45000
 817.76;  -51.060;  -73.870;    0.000;22.81000
 818.01;  -45.900;  -74.140;    0.000;28.24000
 818.26;  -37.820;  -77.660;    0.000;39.84000
 818.52;  -38.440;  -71.160;    0.000;32.72001
 818.77;  -35.980;  -70.450;    0.000;34.47000
 819.02;  148.780;   -1.560;    0.000;150.34000
 819.28;  -41.160;  -76.850;    0.000;35.69000
 819.53;  -45.900;  -76.810;    0.000;30.91000
 819.78;  -29.680;  -71.320;    0.000;41.64000
 820.04;  -34.440;  -76.120;    0.000;41.68000
 820.29;  -42.620;  -69.520;    0.000;26.90000
 820.54;  -37.960;  -71.830;    0.000;33.87000
 820.79;  -29.180;  -68.430;    0.000;39.25000
 821.05;  -52.840;  -73.180;    0.000;20.34000
 821.30;  -20.740;  -60.740;    0.000;40.00000
 821.55;  -26.540;  -56.870;    0.000;30.33000
 821.81;  -48.300;  -72.250;    0.000;23.95000
 822.06;  -42.940;  -64.240;    0.000;21.30000
 822.31;  -15.420;  -64.090;    0.000;48.67000
 822.56;  -52.560;  -71.570;    0.000;19.01000
 822.82;  -60.520;  -74.760;    0.000;14.24000
 823.07;  -61.140;  -77.000;    0.000;15.86000
 823.32;  -57.400;  -86.470;    0.000;29.07000
 823.58;  -39.060;  -70.830;    0.000;31.77000
 823.83;  -46.980;  -68.440;    0.000;21.46000
 824.08;  -53.820;  -68.700;    0.000;14.88000
 824.33;  -60.940;  -78.080;    0.000;17.14000
 824.59;  -62.440;  -75.110;    0.000;12.67000
 824.84;  -43.860;  -73.820;    0.000;29.96000
 825.09;  -42.280;  -71.350;    0.000;29.07000
 825.34;  -46.040;  -78.610;    0.000;32.57000
 825.60;  -52.280;  -76.840;    0.000;24.56000
 825.85;  -54.100;  -72.800;    0.000;18.70000
 826.10;  -64.840;  -75.820;    0.000;10.98000
 826.35;  -44.080;  -78.380;    0.000;34.30000
 826.61;  -51.420;  -69.170;    0.000;17.75000
 826.86;  -60.840;  -74.300;    0.000;13.46000
 827.11;  -54.840;  -73.210;    0.000;18.37000
 827.36;  -54.200;  -79.440;    0.000;25.24000
 827.61;  -61.480;  -77.970;    0.000;16.49000
 827.87;  -50.500;  -73.890;    0.000;23.39000
 828.12;  -56.820;  -78.790;    0.000;21.97000
 828.37;  -48.480;  -76.470;    0.000;27.99000
 828.62;  -42.560;  -66.780;    0.000;24.22000
 828.88;  -32.740;  -68.950;    0.000;36.21000
 829.13;  -41.860;  -65.460;    0.000;23.60000
 829.38;  -44.900;  -74.310;    0.000;29.41000
 829.63;  -52.660;  -76.380;    0.000;23.72000
 829.88;  -53.100;  -77.840;    0.000;24.74000
 830.14;  -42.300;  -68.400;    0.000;26.10000
 830.39;  -35.180;  -67.150;    0.000;31.97000
 830.64;  -60.300;  -73.500;    0.000;13.20000
 830.89;  -31.620;  -63.930;    0.000;32.31000
 831.14;  -60.620;  -65.130;    0.000; 4.51000
 831.39;  -65.640;  -80.200;    0.000;14.56000
 831.65;  -65.920;  -73.680;    0.000; 7.76000
 831.90;  -53.300;  -76.450;    0.000;23.15000
 832.15;  -53.800;  -74.460;    0.000;20.66000
 832.40;  -49.420;  -71.070;    0.000;21.65000
 832.65;  -46.040;  -65.920;    0.000;19.88000
 832.90;  -56.240;  -71.420;    0.000;15.18000
 833.16;  -55.680;  -70.920;    0.000;15.24000
 833.41;  -54.400;  -68.270;    0.000;13.87000
 833.66;  -65.300;  -80.480;    0.000;15.18000
 833.91;  -46.740;  -69.470;    0.000;22.73000
 834.16;  -59.020;  -74.480;    0.000;15.46000
 834.41;  -52.780;  -78.330;    0.000;25.55000
 834.66;  -49.980;  -73.780;    0.000;23.80000
 834.92;  -59.320;  -76.420;    0.000;17.10000
 835.17;  -56.560;  -79.700;    0.000;23.14000
 835.42;  -53.740;  -74.750;    0.000;21.01000
 835.67;  -50.000;  -67.620;    0.000;17.62000
 835.92;  -60.820;  -76.180;    0.000;15.36000
 836.17;  -72.320;  -73.070;    0.000; 0.75000
 836.42;  -61.100;  -80.720;    0.000;19.62000
 836.67;  -62.760;  -72.910;    0.000;10.15001
 836.93;  -61.240;  -67.370;    0.000; 6.13000
 837.18;  -58.740;  -68.480;    0.000; 9.74000
 837.43;  -59.220;  -77.570;    0.000;18.35000
 837.68;  -48.600;  -75.250;    0.000;26.65000
 837.93;  -68.600;  -77.620;    0.000; 9.02000
 838.18;  -63.940;  -72.720;    0.000; 8.78000
 838.43;  -63.540;  -77.330;    0.000;13.79000
 838.68;  -61.940;  -75.400;    0.000;13.46000
 838.93;  -62.300;  -76.840;    0.000;14.54000
 839.18;  -45.980;  -68.870;    0.000;22.89000
 839.43;  -42.120;  -68.920;    0.000;26.80000
 839.69;  -70.500;  -75.200;    0.000; 4.70000
 839.94;  -63.540;  -75.060;    0.000;11.52000
 840.19;  -49.160;  -64.900;    0.000;15.74000
 840.44;  -59.040;  -74.590;    0.000;15.55000
 840.69;  -46.580;  -67.680;    0.000;21.10000
 840.94;  -51.020;  -78.800;    0.000;27.78000
 841.19;  -44.360;  -66.410;    0.000;22.05000
 841.44;  -45.520;  -70.390;    0.000;24.87000
 841.69;  -39.700;  -69.710;    0.000;30.01000
 841.94;  -57.080;  -72.650;    0.000;15.57000
 842.19;  -56.860;  -74.280;    0.000;17.42000
 842.44;  -60.620;  -72.650;    0.000;12.03000
 842.69;  -69.200;  -68.330;    0.000;-0.87000
 842.94;  -52.480;  -71.610;    0.000;19.13000
 843.19;  -71.600;  -78.190;    0.000; 6.59000
 843.44;  -58.240;  -74.710;    0.000;16.47000
 843.69;  -66.800;  -76.520;    0.000; 9.71999
 843.94;   19.280;  -44.550;    0.000;63.83000
 844.19;  -62.380;  -77.910;    0.000;15.53000
 844.44;  -53.260;  -71.510;    0.000;18.25000
 844.69;  -68.640;  -73.310;    0.000; 4.67000
 844.95;  -50.200;  -74.630;    0.000;24.43000
 845.20;  -64.960;  -82.130;    0.000;17.17000
 845.45;  -47.340;  -68.000;    0.000;20.66000
 845.70;  -61.400;  -72.870;    0.000;11.47000
 845.95;  -57.200;  -74.560;    0.000;17.36000
 846.20;  -61.360;  -71.730;    0.000;10.37000
 846.45;  -68.760;  -77.390;    0.000; 8.63000
 846.70;  -71.040;  -65.790;    0.000;-5.25000
 846.95;  -64.520;  -75.980;    0.000;11.46001
 847.20;  -61.080;  -73.000;    0.000;11.92000
 847.44;  -25.180;  -61.130;    0.000;35.95000
 847.69;  -64.740;  -79.180;    0.000;14.44000
 847.94;  -62.620;  -71.950;    0.000; 9.33000
 848.19;  -60.520;  -73.590;    0.000;13.07000
 848.44;  -52.760;  -70.960;    0.000;18.20000
 848.69;  -67.140;  -73.670;    0.000; 6.53000
 848.94;  -61.860;  -69.750;    0.000; 7.89000
 849.19;  -64.080;  -80.480;    0.000;16.40000
 849.44;  -65.100;  -73.190;    0.000; 8.09000
 849.69;  -60.180;  -78.510;    0.000;18.33000
 849.94;  -70.480;  -72.940;    0.000; 2.46000
 850.19;  -50.560;  -63.930;    0.000;13.37000
 850.44;  -58.080;  -76.610;    0.000;18.53000
 850.69;  -65.020;  -69.690;    0.000; 4.67001
 850.94;  -64.440;  -77.600;    0.000;13.16000
 851.19;  -61.400;  -72.230;    0.000;10.83000
 851.44;  -62.940;  -76.080;    0.000;13.14000
 851.69;  -76.020;  -76.040;    0.000; 0.02000
 851.94;  -66.820;  -79.190;    0.000;12.37000
 852.19;  -62.640;  -76.300;    0.000;13.66000
 852.44;  -64.740;  -74.760;    0.000;10.02000
 852.68;  -66.360;  -75.620;    0.000; 9.26000
 852.93;  -48.200;  -70.590;    0.000;22.39000
 853.18;  -65.380;  -77.250;    0.000;11.87000
 853.43;  -63.560;  -76.120;    0.000;12.56000
 853.68;  -60.340;  -77.810;    0.000;17.47000
 853.93;  -66.200;  -67.550;    0.000; 1.35001
 854.18;  -48.440;  -66.630;    0.000;18.19000
 854.43;  -59.080;  -77.970;    0.000;18.89000
 854.68;  -58.680;  -75.490;    0.000;16.81000
 854.93;  -45.460;  -66.450;    0.000;20.99000
 855.18;  -61.840;  -74.650;    0.000;12.81000
 855.42;  -55.140;  -72.230;    0.000;17.09000
 855.67;  -60.860;  -71.310;    0.000;10.45000
 855.92;  -63.840;  -74.510;    0.000;10.67000
 856.17;  -57.020;  -67.440;    0.000;10.42000
 856.42;  -56.500;  -76.160;    0.000;19.66000
 856.67;  -56.280;  -77.970;    0.000;21.69000
 856.92;  -54.940;  -79.620;    0.000;24.68000
 857.17;  -64.180;  -77.870;    0.000;13.69000
 857.41;  -54.560;  -71.030;    0.000;16.47000
 857.66;  -63.020;  -73.290;    0.000;10.27000
 857.91;  -53.460;  -73.290;    0.000;19.83000
 858.16;  -69.140;  -82.520;    0.000;13.38000
 858.41;  -74.980;  -72.320;    0.000;-2.66000
 858.66;  -50.680;  -69.160;    0.000;18.48000
 858.91;  -53.060;  -77.930;    0.000;24.87000
 859.15;  -65.980;  -76.870;    0.000;10.89000
 859.40;  -32.680;  -68.270;    0.000;35.59000
 859.65;  -77.320;  -84.460;    0.000; 7.14000
 859.90;  -70.320;  -79.390;    0.000; 9.07000
 860.15;  -57.160;  -69.890;    0.000;12.73000
 860.40;  -44.880;  -69.890;    0.000;25.01000
 860.64;  -58.440;  -70.370;    0.000;11.93000
 860.89;  -65.800;  -74.750;    0.000; 8.95000
 861.14;  -60.440;  -70.090;    0.000; 9.65000
 861.39;  -60.460;  -69.870;    0.000; 9.41000
 861.64;  -65.560;  -75.520;    0.000; 9.96000
 861.88;  -44.380;  -72.380;    0.000;28.00000
 862.13;  -61.800;  -76.230;    0.000;14.43000
 862.38;  -71.300;  -72.450;    0.000; 1.14999
 862.63;  -67.520;  -74.260;    0.000; 6.74001
 862.88;  -53.740;  -69.530;    0.000;15.79000
 863.12;  -67.440;  -67.960;    0.000; 0.52000
 863.37;  -67.740;  -71.990;    0.000; 4.25000
 863.62;  -69.900;  -77.420;    0.000; 7.52000
 863.87;  -76.820;  -78.180;    0.000; 1.36000
 864.12;  -50.740;  -73.600;    0.000;22.86000
 864.36;  -64.700;  -69.580;    0.000; 4.88000
 864.61;  -70.920;  -73.260;    0.000; 2.34000
 864.86;  -68.300;  -78.780;    0.000;10.48000
 865.11;  -52.500;  -68.440;    0.000;15.94000
 865.35;  -63.480;  -68.810;    0.000; 5.33000
 865.60;  -58.720;  -71.930;    0.000;13.21000
 865.85;  -46.180;  -72.600;    0.000;26.42000
 866.10;  -67.200;  -75.090;    0.000; 7.89000
 866.34;  -52.460;  -74.150;    0.000;21.69000
 866.59;  -51.800;  -67.290;    0.000;15.49000
 866.84;  -70.400;  -74.630;    0.000; 4.23000
 867.09;  -68.680;  -80.380;    0.000;11.70000
 867.33;  -71.280;  -74.040;    0.000; 2.76000
 867.58;  -59.300;  -71.470;    0.000;12.17000
 867.83;  -73.920;  -74.280;    0.000; 0.36000
 868.08;  -57.780;  -76.090;    0.000;18.31000
 868.32;  -69.920;  -68.010;    0.000;-1.91000
 868.57;  -71.980;  -81.500;    0.000; 9.52000
 868.82;  -45.040;  -72.920;    0.000;27.88000
 869.07;  -78.480;  -81.160;    0.000; 2.68000
 869.31;  -60.240;  -69.490;    0.000; 9.25000
 869.56;  -74.880;  -84.440;    0.000; 9.56001
 869.81;  -61.460;  -83.050;    0.000;21.59000
 870.05;  -68.460;  -79.990;    0.000;11.53000
 870.30;  -62.100;  -76.070;    0.000;13.97000
 870.55;  -44.160;  -69.170;    0.000;25.01000
 870.80;  -44.060;  -74.860;    0.000;30.80000
 871.04;  -65.020;  -69.280;    0.000; 4.26000
 871.29;  -58.300;  -73.970;    0.000;15.67000
 871.54;  -75.320;  -72.650;    0.000;-2.67000
 871.78;  -75.320;  -75.650;    0.000; 0.33000
 872.03;  -54.420;  -76.460;    0.000;22.04000
 872.28;  -50.660;  -75.610;    0.000;24.95000
 872.52;  -58.660;  -63.940;    0.000; 5.28000
 872.77;  -67.740;  -68.280;    0.000; 0.54000
 873.02;  -71.900;  -78.210;    0.000; 6.31000
 873.26;  -78.340;  -75.910;    0.000;-2.42999
 873.51;  -53.980;  -67.060;    0.000;13.08000
 873.76;  -64.680;  -69.910;    0.000; 5.23000
 874.00;  -54.020;  -67.690;    0.000;13.67000
 874.25;  -74.440;  -75.800;    0.000; 1.36000
 874.50;  -64.600;  -80.100;    0.000;15.50000
 874.74;  -67.560;  -73.380;    0.000; 5.82000
 874.99;  -76.080;  -77.690;    0.000; 1.61000
 875.24;  -29.120;  -71.860;    0.000;42.74000
 875.48;  -64.460;  -75.510;    0.000;11.05000
 875.73;  -64.200;  -71.020;    0.000; 6.82000
 875.98;  -71.620;  -72.290;    0.000; 0.67000
 876.22;  -61.220;  -74.020;    0.000;12.80000
 876.47;  -67.320;  -73.180;    0.000; 5.86000
 876.71;  -57.520;  -66.650;    0.000; 9.13000
 876.96;  -47.620;  -68.040;    0.000;20.42000
 877.21;  -60.960;  -80.560;    0.000;19.60000
 877.45;  -75.560;  -79.740;    0.000; 4.18000
 877.70;  -53.200;  -68.150;    0.000;14.95000
 877.95;  -51.700;  -71.420;    0.000;19.72000
 878.19;  -37.820;  -66.290;    0.000;28.47000
 878.44;  -63.040;  -73.630;    0.000;10.59000
 878.68;  -35.300;  -58.820;    0.000;23.52000
 878.93;  -54.640;  -67.350;    0.000;12.71000
 879.18;  -50.240;  -71.350;    0.000;21.11000
 879.42;  -50.800;  -70.170;    0.000;19.37000
 879.67;  -57.200;  -73.850;    0.000;16.65000
 879.91;  -46.960;  -67.960;    0.000;21.00000
 880.16;  -38.840;  -78.060;    0.000;39.22000
 880.40;  -59.280;  -65.360;    0.000; 6.08000
 880.65;  -46.940;  -71.790;    0.000;24.85000
 880.90;  -45.860;  -69.720;    0.000;23.86000
 881.14;  -40.860;  -65.060;    0.000;24.20000
 881.39;  -58.220;  -72.620;    0.000;14.40000
 881.63;  -48.580;  -68.980;    0.000;20.40000
 881.88;  -50.960;  -70.790;    0.000;19.83000
 882.12;  -54.760;  -76.190;    0.000;21.43000
 882.37;  -58.560;  -72.930;    0.000;14.37000
 882.62;  -59.180;  -70.810;    0.000;11.63000
 882.86;  -53.200;  -75.020;    0.000;21.82000
 883.11;  -51.840;  -74.980;    0.000;23.14000
 883.35;  -48.900;  -71.230;    0.000;22.33000
 883.60;  -29.840;  -67.200;    0.000;37.36000
 883.84;  -51.000;  -73.170;    0.000;22.17000
 884.09;  -47.460;  -72.690;    0.000;25.23000
 884.33;  -58.100;  -71.050;    0.000;12.95000
 884.58;  -48.460;  -70.670;    0.000;22.21000
 884.82;  -62.580;  -73.840;    0.000;11.25999
 885.07;  -54.140;  -75.950;    0.000;21.81000
 885.31;  -43.520;  -74.400;    0.000;30.88000
 885.56;  -30.620;  -65.280;    0.000;34.66000
 885.80;  -49.640;  -79.420;    0.000;29.78000
 886.05;  -55.520;  -70.300;    0.000;14.78000
 886.29;  -45.220;  -61.930;    0.000;16.71000
 886.54;  -58.000;  -68.310;    0.000;10.31000
 886.78;  -51.760;  -71.060;    0.000;19.30000
 887.03;  -43.260;  -67.810;    0.000;24.55000
 887.27;  -13.780;  -61.920;    0.000;48.14000
 887.52;  -50.800;  -70.160;    0.000;19.36000
 887.76;  -40.780;  -70.980;    0.000;30.20000
 888.01;  -40.120;  -70.270;    0.000;30.15000
 888.25;  -47.320;  -74.180;    0.000;26.86000
 888.50;  -40.660;  -70.460;    0.000;29.80000
 888.74;  -45.920;  -65.070;    0.000;19.15000
 888.99;  -42.500;  -75.410;    0.000;32.91000
 889.23;  -48.120;  -73.760;    0.000;25.64000
 889.48;  -42.780;  -67.050;    0.000;24.27000
 889.72;  -32.460;  -61.140;    0.000;28.68000
 889.97;  -35.040;  -67.890;    0.000;32.85000
 890.21;  -41.760;  -71.660;    0.000;29.90001
 890.46;  -34.180;  -67.310;    0.000;33.13000
 890.70;  -41.620;  -66.540;    0.000;24.92000
 890.94;  -32.980;  -66.690;    0.000;33.71000
 891.19;  -50.020;  -67.720;    0.000;17.70000
 891.43;  -32.500;  -60.230;    0.000;27.73000
 891.68;  -25.920;  -60.880;    0.000;34.96000
 891.92;  -33.300;  -66.740;    0.000;33.44000
 892.17;  -38.000;  -63.670;    0.000;25.67000
 892.41;  -32.500;  -64.550;    0.000;32.05000
 892.66;  -49.460;  -72.780;    0.000;23.32000
 892.90;   -4.940;  -53.850;    0.000;48.91000
 893.14;  -31.880;  -67.700;    0.000;35.82000
 893.39;  -27.200;  -61.520;    0.000;34.32000
 893.63;  -52.040;  -66.090;    0.000;14.05000
 893.88;  -33.740;  -64.750;    0.000;31.01000
 894.12;  -36.560;  -60.690;    0.000;24.13000
 894.36;  -20.240;  -52.460;    0.000;32.22000
 894.61;  -27.460;  -59.430;    0.000;31.97000
 894.85;  -32.600;  -59.970;    0.000;27.37000
 895.10;  -12.440;  -64.360;    0.000;51.92000
 895.34;  -32.660;  -59.380;    0.000;26.72000
 895.58;  -27.940;  -69.260;    0.000;41.32000
 895.83;  -33.380;  -62.800;    0.000;29.42000
 896.07;  -26.780;  -66.320;    0.000;39.54000
 896.32;  -24.000;  -58.720;    0.000;34.72000
 896.56;  -17.120;  -59.080;    0.000;41.96000
 896.80;  -19.140;  -64.120;    0.000;44.98000
 897.05;  -28.860;  -66.340;    0.000;37.48000
 897.29;   -8.420;  -51.230;    0.000;42.81000
 897.53;  -25.300;  -64.490;    0.000;39.19000
 897.78;  -19.440;  -59.400;    0.000;39.96000
 898.02;   -3.840;  -53.570;    0.000;49.73000
 898.26;  -18.560;  -63.930;    0.000;45.37000
 898.51;  -20.820;  -52.040;    0.000;31.22000
 898.75;   -9.680;  -56.010;    0.000;46.33000
 898.99;  -18.220;  -55.790;    0.000;37.57000
 899.24;   -5.360;  -49.180;    0.000;43.82000
 899.48;  -10.360;  -48.260;    0.000;37.90000
 899.73;  -10.540;  -54.040;    0.000;43.50000
 899.97;    7.400;  -42.750;    0.000;50.15000
 900.21;   16.300;  -44.210;    0.000;60.51000
 900.46;    5.280;  -41.230;    0.000;46.51000
 900.70;   19.900;  -40.060;    0.000;59.96000
 900.94;   13.100;  -49.340;    0.000;62.44000
 901.18;   29.320;  -43.690;    0.000;73.01000
 901.43;   27.680;  -40.290;    0.000;67.97000
 901.67;   17.800;  -38.410;    0.000;56.21000
 901.91;   22.220;  -29.050;    0.000;51.27000
 902.16;   30.580;  -39.250;    0.000;69.83000
 902.40;   45.740;  -35.010;    0.000;80.75000
 902.64;   37.240;  -28.700;    0.000;65.94000
 902.89;   49.760;  -28.120;    0.000;77.88000
 903.13;   57.400;  -20.830;    0.000;78.23000
 903.37;   73.420;  -22.230;    0.000;95.65000
 903.61;   91.080;   -7.810;    0.000;98.89000
 903.86;   95.300;   -9.670;    0.000;104.97000
 904.10;  113.740;   -7.290;    0.000;121.03000
 904.34;  108.100;    5.810;    0.000;102.29000
 904.59;  122.400;   17.270;    0.000;105.13000
 904.83;  162.360;   23.940;    0.000;138.42000
 905.07;  190.980;   39.780;    0.000;151.20000
 905.31;  196.200;   43.380;    0.000;152.82000
 905.56;  221.880;   56.080;    0.000;165.80000
 905.80;  267.940;   75.520;    0.000;192.42001

